Wavenumber,Intensity
650.4205,0.002625
652.2841,0.003255
654.1478,0.002455
656.0115,0.002328
657.8751,0.002662
659.7388,0.002341
661.6025,0.001193
663.4661,0.001509
665.3298,0.002679
667.1935,0.002933
669.0571,0.002092
670.9208,0.001421
672.7845,0.001444
674.6481,0.001767
676.5118,0.002058
678.3755,0.002050
680.2392,0.001992
682.1028,0.002201
683.9665,0.002707
685.8302,0.003040
687.6938,0.002418
689.5575,0.002153
691.4212,0.002557
693.2848,0.003001
695.1485,0.003362
697.0122,0.003057
698.8758,0.002322
700.7395,0.001774
702.6032,0.001436
704.4669,0.001500
706.3305,0.001755
708.1942,0.001701
710.0579,0.001602
711.9215,0.001613
713.7852,0.001498
715.6489,0.002006
717.5125,0.002497
719.3762,0.002424
721.2399,0.002367
723.1035,0.002049
724.9672,0.001770
726.8309,0.001888
728.6945,0.001625
730.5582,0.001711
732.4219,0.002158
734.2856,0.002393
736.1492,0.002683
738.0129,0.002430
739.8766,0.001958
741.7402,0.001637
743.6039,0.001746
745.4676,0.002353
747.3312,0.002437
749.1949,0.002262
751.0586,0.002513
752.9222,0.002867
754.7859,0.002750
756.6496,0.002698
758.5132,0.003215
760.3769,0.003443
762.2406,0.003062
764.1043,0.003054
765.9679,0.003638
767.8316,0.003901
769.6953,0.003756
771.5589,0.003942
773.4226,0.004416
775.2863,0.004682
777.1499,0.005000
779.0136,0.005069
780.8773,0.004635
782.7409,0.004085
784.6046,0.003951
786.4683,0.003779
788.3320,0.003523
790.1956,0.003499
792.0593,0.003597
793.9230,0.004122
795.7866,0.004699
797.6503,0.004841
799.5140,0.004532
801.3776,0.003863
803.2413,0.003250
805.1050,0.002893
806.9686,0.002396
808.8323,0.001885
810.6960,0.001345
812.5596,0.000897
814.4233,0.001028
816.2870,0.001139
818.1507,0.001008
820.0143,0.000950
821.8780,0.000613
823.7417,0.000565
825.6053,0.000913
827.4690,0.000991
829.3327,0.000945
831.1963,0.000851
833.0600,0.000493
834.9237,0.000459
836.7873,0.000891
838.6510,0.001040
840.5147,0.001042
842.3784,0.001192
844.2420,0.001150
846.1057,0.000965
847.9694,0.001018
849.8330,0.001212
851.6967,0.001297
853.5604,0.001287
855.4240,0.001338
857.2877,0.001445
859.1514,0.001378
861.0150,0.001290
862.8787,0.001296
864.7424,0.001380
866.6060,0.001457
868.4697,0.001478
870.3334,0.001535
872.1971,0.001532
874.0607,0.001549
875.9244,0.001812
877.7881,0.001936
879.6517,0.001812
881.5154,0.001751
883.3791,0.001790
885.2427,0.001810
887.1064,0.001703
888.9701,0.001715
890.8337,0.001876
892.6974,0.001998
894.5611,0.002068
896.4247,0.002073
898.2884,0.002008
900.1521,0.002016
902.0158,0.002162
903.8794,0.002231
905.7431,0.002089
907.6068,0.002028
909.4704,0.002244
911.3341,0.002390
913.1978,0.002349
915.0614,0.002328
916.9251,0.002346
918.7888,0.002371
920.6524,0.002462
922.5161,0.002505
924.3798,0.002459
926.2435,0.002412
928.1071,0.002430
929.9708,0.002509
931.8345,0.002531
933.6981,0.002475
935.5618,0.002475
937.4255,0.002601
939.2891,0.002753
941.1528,0.002942
943.0165,0.003081
944.8801,0.002976
946.7438,0.002818
948.6075,0.002873
950.4711,0.002974
952.3348,0.002937
954.1985,0.002904
956.0622,0.002965
957.9258,0.003005
959.7895,0.003053
961.6532,0.003073
963.5168,0.003082
965.3805,0.003102
967.2442,0.003124
969.1078,0.003221
970.9715,0.003245
972.8352,0.003216
974.6988,0.003126
976.5625,0.003135
978.4262,0.003278
980.2899,0.003365
982.1535,0.003413
984.0172,0.003488
985.8809,0.003627
987.7445,0.003711
989.6082,0.003768
991.4719,0.003853
993.3355,0.003890
995.1992,0.003950
997.0629,0.004087
998.9265,0.004095
1000.7902,0.004005
1002.6539,0.004037
1004.5175,0.004138
1006.3812,0.004201
1008.2449,0.004309
1010.1086,0.004395
1011.9722,0.004379
1013.8359,0.004456
1015.6996,0.004593
1017.5632,0.004658
1019.4269,0.004724
1021.2906,0.004768
1023.1542,0.004816
1025.0179,0.004975
1026.8816,0.005138
1028.7452,0.005213
1030.6089,0.005267
1032.4726,0.005391
1034.3362,0.005615
1036.1999,0.005759
1038.0636,0.005825
1039.9273,0.005949
1041.7909,0.006097
1043.6546,0.006285
1045.5183,0.006403
1047.3819,0.006439
1049.2456,0.006596
1051.1093,0.006847
1052.9729,0.006960
1054.8366,0.007022
1056.7003,0.007231
1058.5639,0.007441
1060.4276,0.007542
1062.2913,0.007624
1064.1550,0.007677
1066.0186,0.007681
1067.8823,0.007660
1069.7460,0.007606
1071.6096,0.007658
1073.4733,0.007840
1075.3370,0.007970
1077.2006,0.008073
1079.0643,0.008154
1080.9280,0.008138
1082.7916,0.008041
1084.6553,0.007935
1086.5190,0.007874
1088.3826,0.007765
1090.2463,0.007653
1092.1100,0.007575
1093.9737,0.007456
1095.8373,0.007282
1097.7010,0.007058
1099.5647,0.006888
1101.4283,0.006751
1103.2920,0.006573
1105.1557,0.006417
1107.0193,0.006275
1108.8830,0.006095
1110.7467,0.005906
1112.6103,0.005807
1114.4740,0.005695
1116.3377,0.005546
1118.2014,0.005409
1120.0650,0.005219
1121.9287,0.005059
1123.7924,0.004984
1125.6560,0.004942
1127.5197,0.004862
1129.3834,0.004705
1131.2470,0.004533
1133.1107,0.004442
1134.9744,0.004429
1136.8380,0.004376
1138.7017,0.004253
1140.5654,0.004182
1142.4290,0.004098
1144.2927,0.003930
1146.1564,0.003805
1148.0201,0.003702
1149.8837,0.003579
1151.7474,0.003442
1153.6111,0.003237
1155.4747,0.003171
1157.3384,0.003275
1159.2021,0.003412
1161.0657,0.003587
1162.9294,0.003671
1164.7931,0.003624
1166.6567,0.003539
1168.5204,0.003422
1170.3841,0.003193
1172.2477,0.002881
1174.1114,0.002682
1175.9751,0.002611
1177.8388,0.002531
1179.7024,0.002508
1181.5661,0.002452
1183.4298,0.002336
1185.2934,0.002317
1187.1571,0.002344
1189.0208,0.002330
1190.8844,0.002231
1192.7481,0.002146
1194.6118,0.002162
1196.4754,0.002164
1198.3391,0.002040
1200.2028,0.001944
1202.0665,0.001883
1203.9301,0.001835
1205.7938,0.001780
1207.6575,0.001689
1209.5211,0.001550
1211.3848,0.001382
1213.2485,0.001318
1215.1121,0.001241
1216.9758,0.001082
1218.8395,0.000994
1220.7031,0.000966
1222.5668,0.000938
1224.4305,0.000873
1226.2941,0.000779
1228.1578,0.000701
1230.0215,0.000628
1231.8852,0.000643
1233.7488,0.000681
1235.6125,0.000609
1237.4762,0.000528
1239.3398,0.000511
1241.2035,0.000514
1243.0672,0.000477
1244.9308,0.000440
1246.7945,0.000453
1248.6582,0.000462
1250.5218,0.000417
1252.3855,0.000379
1254.2492,0.000374
1256.1129,0.000343
1257.9765,0.000319
1259.8402,0.000247
1261.7039,0.000250
1263.5675,0.000349
1265.4312,0.000385
1267.2949,0.000412
1269.1585,0.000389
1271.0222,0.000316
1272.8859,0.000305
1274.7495,0.000340
1276.6132,0.000319
1278.4769,0.000331
1280.3405,0.000385
1282.2042,0.000421
1284.0679,0.000384
1285.9316,0.000237
1287.7952,0.000124
1289.6589,0.000194
1291.5226,0.000279
1293.3862,0.000286
1295.2499,0.000278
1297.1136,0.000262
1298.9772,0.000250
1300.8409,0.000277
1302.7046,0.000302
1304.5682,0.000297
1306.4319,0.000271
1308.2956,0.000265
1310.1592,0.000233
1312.0229,0.000174
1313.8866,0.000229
1315.7503,0.000321
1317.6139,0.000258
1319.4776,0.000170
1321.3413,0.000188
1323.2049,0.000202
1325.0686,0.000162
1326.9323,0.000173
1328.7959,0.000193
1330.6596,0.000179
1332.5233,0.000222
1334.3869,0.000228
1336.2506,0.000204
1338.1143,0.000176
1339.9780,0.000172
1341.8416,0.000201
1343.7053,0.000220
1345.5690,0.000222
1347.4326,0.000201
1349.2963,0.000177
1351.1600,0.000204
1353.0236,0.000257
1354.8873,0.000277
1356.7510,0.000283
1358.6146,0.000294
1360.4783,0.000249
1362.3420,0.000202
1364.2056,0.000269
1366.0693,0.000316
1367.9330,0.000330
1369.7967,0.000368
1371.6603,0.000251
1373.5240,0.000203
1375.3877,0.000340
1377.2513,0.000335
1379.1150,0.000241
1380.9787,0.000137
1382.8423,0.000131
1384.7060,0.000178
1386.5697,0.000104
1388.4333,0.000151
1390.2970,0.000241
1392.1607,0.000205
1394.0244,0.000217
1395.8880,0.000330
1397.7517,0.000349
1399.6154,0.000337
1401.4790,0.000370
1403.3427,0.000316
1405.2064,0.000305
1407.0700,0.000303
1408.9337,0.000336
1410.7974,0.000371
1412.6610,0.000375
1414.5247,0.000259
1416.3884,0.000139
1418.2520,0.000206
1420.1157,0.000436
1421.9794,0.000389
1423.8431,0.000269
1425.7067,0.000297
1427.5704,0.000210
1429.4341,0.000222
1431.2977,0.000317
1433.1614,0.000308
1435.0251,0.000311
1436.8887,0.000403
1438.7524,0.000525
1440.6161,0.000446
1442.4797,0.000355
1444.3434,0.000223
1446.2071,0.000222
1448.0707,0.000310
1449.9344,0.000341
1451.7981,0.000355
1453.6618,0.000291
1455.5254,0.000117
1457.3891,0.000397
1459.2528,0.000668
1461.1164,0.000418
1462.9801,0.000199
1464.8438,0.000316
1466.7074,0.000521
1468.5711,0.000364
1470.4348,0.000137
1472.2984,0.000135
1474.1621,0.000306
1476.0258,0.000321
1477.8895,0.000386
1479.7531,0.000347
1481.6168,0.000375
1483.4805,0.000434
1485.3441,0.000290
1487.2078,0.000187
1489.0715,0.000319
1490.9351,0.000545
1492.7988,0.000663
1494.6625,0.000424
1496.5261,0.000289
1498.3898,0.000459
1500.2535,0.000540
1502.1171,0.000397
1503.9808,0.000012
1505.8445,-0.000146
1507.7082,0.000574
1509.5718,0.000796
1511.4355,0.000466
1513.2992,0.000286
1515.1628,0.000256
1517.0265,0.000335
1518.8902,0.000334
1520.7538,0.000185
1522.6175,0.000293
1524.4812,0.000236
1526.3448,0.000312
1528.2085,0.000588
1530.0722,0.000441
1531.9359,0.000243
1533.7995,0.000336
1535.6632,0.000555
1537.5269,0.000320
1539.3905,0.000080
1541.2542,0.000307
1543.1179,0.000521
1544.9815,0.000616
1546.8452,0.000549
1548.7089,0.000423
1550.5725,0.000496
1552.4362,0.000399
1554.2999,0.000075
1556.1635,-0.000061
1558.0272,-0.000244
1559.8909,0.000577
1561.7546,0.000971
1563.6182,0.000698
1565.4819,0.000558
1567.3456,0.000400
1569.2092,0.000349
1571.0729,0.000553
1572.9366,0.000546
1574.8002,0.000323
1576.6639,0.000401
1578.5276,0.000614
1580.3912,0.000591
1582.2549,0.000635
1584.1186,0.000529
1585.9822,0.000463
1587.8459,0.000618
1589.7096,0.000749
1591.5733,0.000766
1593.4369,0.000718
1595.3006,0.000654
1597.1643,0.000693
1599.0279,0.000635
1600.8916,0.000506
1602.7553,0.000528
1604.6189,0.000560
1606.4826,0.000587
1608.3463,0.000667
1610.2099,0.000645
1612.0736,0.000548
1613.9373,0.000523
1615.8010,0.000483
1617.6646,0.000535
1619.5283,0.000564
1621.3920,0.000527
1623.2556,0.000596
1625.1193,0.000765
1626.9830,0.000536
1628.8466,0.000370
1630.7103,0.000453
1632.5740,0.000384
1634.4376,0.000269
1636.3013,0.000647
1638.1650,0.000822
1640.0286,0.000732
1641.8923,0.000605
1643.7560,0.000409
1645.6197,0.000374
1647.4833,0.000508
1649.3470,0.000570
1651.2107,0.000190
1653.0743,0.000242
1654.9380,0.001015
1656.8017,0.000992
1658.6653,0.000686
1660.5290,0.000514
1662.3927,0.000713
1664.2563,0.000722
1666.1200,0.000470
1667.9837,0.000387
1669.8474,0.000495
1671.7110,0.000599
1673.5747,0.000446
1675.4384,0.000552
1677.3020,0.000936
1679.1657,0.000759
1681.0294,0.000556
1682.8930,0.000510
1684.7567,0.000839
1686.6204,0.000914
1688.4840,0.000673
1690.3477,0.000736
1692.2114,0.000689
1694.0750,0.000457
1695.9387,0.000365
1697.8024,0.000440
1699.6661,0.000200
1701.5297,0.000564
1703.3934,0.000605
1705.2571,0.000499
1707.1207,0.000722
1708.9844,0.000915
1710.8481,0.000836
1712.7117,0.000699
1714.5754,0.000570
1716.4391,0.000450
1718.3027,0.000675
1720.1664,0.000862
1722.0301,0.000847
1723.8937,0.000846
1725.7574,0.000787
1727.6211,0.000713
1729.4848,0.000638
1731.3484,0.000466
1733.2121,0.000390
1735.0758,0.000979
1736.9394,0.001033
1738.8031,0.000513
1740.6668,0.000628
1742.5304,0.000824
1744.3941,0.000874
1746.2578,0.000786
1748.1214,0.000656
1749.9851,0.000673
1751.8488,0.000828
1753.7125,0.000663
1755.5761,0.000479
1757.4398,0.000659
1759.3035,0.000755
1761.1671,0.000722
1763.0308,0.000875
1764.8945,0.000956
1766.7581,0.000739
1768.6218,0.000664
1770.4855,0.000719
1772.3491,0.000738
1774.2128,0.000813
1776.0765,0.000762
1777.9401,0.000715
1779.8038,0.000620
1781.6675,0.000649
1783.5312,0.000800
1785.3948,0.000857
1787.2585,0.000882
1789.1222,0.000761
1790.9858,0.000669
1792.8495,0.000936
1794.7132,0.000983
1796.5768,0.000712
1798.4405,0.000706
1800.3042,0.000816
1802.1678,0.000939
1804.0315,0.001041
1805.8952,0.001082
1807.7589,0.000922
1809.6225,0.000703
1811.4862,0.000622
1813.3499,0.000727
1815.2135,0.000722
1817.0772,0.000669
1818.9409,0.000873
1820.8045,0.001009
1822.6682,0.000936
1824.5319,0.000859
1826.3955,0.000690
1828.2592,0.000709
1830.1229,0.001120
1831.9865,0.001292
1833.8502,0.000970
1835.7139,0.000884
1837.5776,0.001015
1839.4412,0.000893
1841.3049,0.000670
1843.1686,0.000575
1845.0322,0.000815
1846.8959,0.001031
1848.7596,0.001006
1850.6232,0.000928
1852.4869,0.000969
1854.3506,0.000916
1856.2142,0.000883
1858.0779,0.001085
1859.9416,0.001003
1861.8052,0.001018
1863.6689,0.001066
1865.5326,0.000899
1867.3963,0.000760
1869.2599,0.000904
1871.1236,0.000882
1872.9873,0.000798
1874.8509,0.001152
1876.7146,0.001463
1878.5783,0.001303
1880.4419,0.001202
1882.3056,0.001025
1884.1693,0.000822
1886.0329,0.000713
1887.8966,0.000762
1889.7603,0.000892
1891.6240,0.001008
1893.4876,0.001213
1895.3513,0.001489
1897.2150,0.001372
1899.0786,0.001239
1900.9423,0.001326
1902.8060,0.001054
1904.6696,0.000828
1906.5333,0.000773
1908.3970,0.000818
1910.2606,0.001061
1912.1243,0.000942
1913.9880,0.000918
1915.8516,0.001246
1917.7153,0.001297
1919.5790,0.001073
1921.4427,0.000980
1923.3063,0.000764
1925.1700,0.000793
1927.0337,0.001363
1928.8973,0.001799
1930.7610,0.001578
1932.6247,0.001330
1934.4883,0.001053
1936.3520,0.000634
1938.2157,0.000726
1940.0793,0.000932
1941.9430,0.000996
1943.8067,0.001312
1945.6704,0.001008
1947.5340,0.000953
1949.3977,0.001445
1951.2614,0.001729
1953.1250,0.001392
1954.9887,0.000992
1956.8524,0.000802
1958.7160,0.001029
1960.5797,0.001254
1962.4434,0.001083
1964.3070,0.001022
1966.1707,0.000688
1968.0344,0.000634
1969.8980,0.000929
1971.7617,0.001355
1973.6254,0.001579
1975.4891,0.001533
1977.3527,0.001297
1979.2164,0.000997
1981.0801,0.001125
1982.9437,0.001131
1984.8074,0.001061
1986.6711,0.001500
1988.5347,0.001650
1990.3984,0.000510
1992.2621,0.000451
1994.1257,0.000880
1995.9894,0.001720
1997.8531,0.001696
1999.7167,0.000896
2001.5804,0.001224
2003.4441,0.000890
2005.3078,0.000604
2007.1714,0.001095
2009.0351,0.001194
2010.8988,0.001115
2012.7624,0.001388
2014.6261,0.000867
2016.4898,0.001141
2018.3534,0.001746
2020.2171,0.001448
2022.0808,0.001395
2023.9444,0.001281
2025.8081,0.001360
2027.6718,0.001598
2029.5355,0.001702
2031.3991,0.001267
2033.2628,0.001009
2035.1265,0.001389
2036.9901,0.001877
2038.8538,0.001561
2040.7175,0.001354
2042.5811,0.001390
2044.4448,0.001422
2046.3085,0.001746
2048.1721,0.001970
2050.0358,0.001513
2051.8995,0.001186
2053.7631,0.001062
2055.6268,0.001277
2057.4905,0.001554
2059.3542,0.001231
2061.2178,0.001063
2063.0815,0.001235
2064.9452,0.001447
2066.8088,0.001101
2068.6725,0.000946
2070.5362,0.001104
2072.3998,0.001269
2074.2635,0.001632
2076.1272,0.001595
2077.9908,0.001676
2079.8545,0.001870
2081.7182,0.001397
2083.5819,0.000825
2085.4455,0.000789
2087.3092,0.001052
2089.1729,0.001481
2091.0365,0.001533
2092.9002,0.001369
2094.7639,0.001331
2096.6275,0.001471
2098.4912,0.001923
2100.3549,0.001885
2102.2185,0.001445
2104.0822,0.001203
2105.9459,0.001088
2107.8095,0.001090
2109.6732,0.001092
2111.5369,0.001222
2113.4006,0.001462
2115.2642,0.000914
2117.1279,0.000773
2118.9916,0.001403
2120.8552,0.001471
2122.7189,0.001385
2124.5826,0.001536
2126.4462,0.001633
2128.3099,0.001488
2130.1736,0.001128
2132.0372,0.001186
2133.9009,0.001158
2135.7646,0.000866
2137.6282,0.000687
2139.4919,0.000775
2141.3556,0.000444
2143.2193,0.000334
2145.0829,0.000726
2146.9466,0.000841
2148.8103,0.000557
2150.6739,0.000395
2152.5376,0.000927
2154.4013,0.001599
2156.2649,0.001608
2158.1286,0.001523
2159.9923,0.001508
2161.8559,0.001108
2163.7196,0.000855
2165.5833,0.001335
2167.4470,0.001405
2169.3106,0.001388
2171.1743,0.001283
2173.0380,0.001372
2174.9016,0.001451
2176.7653,0.001099
2178.6290,0.001082
2180.4926,0.001585
2182.3563,0.001778
2184.2200,0.001666
2186.0836,0.001201
2187.9473,0.000807
2189.8110,0.001184
2191.6746,0.001451
2193.5383,0.001510
2195.4020,0.001652
2197.2657,0.001631
2199.1293,0.001788
2200.9930,0.001540
2202.8567,0.001266
2204.7203,0.001524
2206.5840,0.001772
2208.4477,0.001744
2210.3113,0.001780
2212.1750,0.001294
2214.0387,0.001373
2215.9023,0.001803
2217.7660,0.001302
2219.6297,0.001340
2221.4934,0.001851
2223.3570,0.001656
2225.2207,0.001290
2227.0844,0.001467
2228.9480,0.001485
2230.8117,0.001242
2232.6754,0.001358
2234.5390,0.001446
2236.4027,0.001663
2238.2664,0.002093
2240.1300,0.002216
2241.9937,0.001758
2243.8574,0.001217
2245.7210,0.001281
2247.5847,0.001232
2249.4484,0.001273
2251.3121,0.001263
2253.1757,0.001720
2255.0394,0.001839
2256.9031,0.001844
2258.7667,0.001704
2260.6304,0.001593
2262.4941,0.001686
2264.3577,0.001307
2266.2214,0.001342
2268.0851,0.001821
2269.9487,0.001721
2271.8124,0.001710
2273.6761,0.001837
2275.5397,0.001741
2277.4034,0.001716
2279.2671,0.001515
2281.1308,0.001622
2282.9944,0.001615
2284.8581,0.001592
2286.7218,0.001785
2288.5854,0.001930
2290.4491,0.001998
2292.3128,0.001681
2294.1764,0.001312
2296.0401,0.001207
2297.9038,0.001558
2299.7674,0.001924
2301.6311,0.001729
2303.4948,0.001515
2305.3585,0.001569
2307.2221,0.001563
2309.0858,0.001409
2310.9495,0.001384
2312.8131,0.001763
2314.6768,0.002053
2316.5405,0.001746
2318.4041,0.001682
2320.2678,0.002122
2322.1315,0.002363
2323.9951,0.002467
2325.8588,0.002096
2327.7225,0.001805
2329.5861,0.001963
2331.4498,0.001804
2333.3135,0.001812
2335.1772,0.002136
2337.0408,0.002208
2338.9045,0.002282
2340.7682,0.002299
2342.6318,0.002021
2344.4955,0.001885
2346.3592,0.001847
2348.2228,0.001739
2350.0865,0.001666
2351.9502,0.001936
2353.8138,0.002296
2355.6775,0.002329
2357.5412,0.002211
2359.4049,0.002010
2361.2685,0.001839
2363.1322,0.001804
2364.9959,0.001750
2366.8595,0.002221
2368.7232,0.002520
2370.5869,0.002188
2372.4505,0.002062
2374.3142,0.001973
2376.1779,0.001779
2378.0415,0.001699
2379.9052,0.001497
2381.7689,0.001406
2383.6325,0.001632
2385.4962,0.001658
2387.3599,0.001737
2389.2236,0.001698
2391.0872,0.001520
2392.9509,0.001573
2394.8146,0.001307
2396.6782,0.000990
2398.5419,0.001364
2400.4056,0.001529
2402.2692,0.001243
2404.1329,0.001387
2405.9966,0.001636
2407.8602,0.001712
2409.7239,0.001824
2411.5876,0.001570
2413.4512,0.001339
2415.3149,0.001480
2417.1786,0.001679
2419.0423,0.001788
2420.9059,0.001799
2422.7696,0.001515
2424.6333,0.001370
2426.4969,0.001610
2428.3606,0.001542
2430.2243,0.001361
2432.0879,0.001608
2433.9516,0.001906
2435.8153,0.002175
2437.6789,0.001863
2439.5426,0.001467
2441.4063,0.001259
2443.2700,0.001128
2445.1336,0.001376
2446.9973,0.002001
2448.8610,0.001901
2450.7246,0.001593
2452.5883,0.001373
2454.4520,0.001440
2456.3156,0.001610
2458.1793,0.001550
2460.0430,0.001346
2461.9066,0.001354
2463.7703,0.001724
2465.6340,0.001937
2467.4976,0.001741
2469.3613,0.001772
2471.2250,0.001769
2473.0887,0.001560
2474.9523,0.001372
2476.8160,0.001590
2478.6797,0.001959
2480.5433,0.001631
2482.4070,0.001281
2484.2707,0.001523
2486.1343,0.001496
2487.9980,0.001170
2489.8617,0.001380
2491.7253,0.001924
2493.5890,0.002030
2495.4527,0.001391
2497.3164,0.001141
2499.1800,0.001628
2501.0437,0.002121
2502.9074,0.002193
2504.7710,0.001918
2506.6347,0.001430
2508.4984,0.001470
2510.3620,0.001803
2512.2257,0.001669
2514.0894,0.001456
2515.9530,0.001472
2517.8167,0.001429
2519.6804,0.001493
2521.5440,0.001854
2523.4077,0.001745
2525.2714,0.001415
2527.1351,0.001543
2528.9987,0.001433
2530.8624,0.001377
2532.7261,0.002026
2534.5897,0.002061
2536.4534,0.001598
2538.3171,0.001705
2540.1807,0.001991
2542.0444,0.002034
2543.9081,0.001913
2545.7717,0.001440
2547.6354,0.001194
2549.4991,0.001546
2551.3627,0.001996
2553.2264,0.001791
2555.0901,0.001249
2556.9538,0.001210
2558.8174,0.001578
2560.6811,0.001754
2562.5448,0.001970
2564.4084,0.001960
2566.2721,0.001541
2568.1358,0.001151
2569.9994,0.001208
2571.8631,0.001429
2573.7268,0.001653
2575.5904,0.001756
2577.4541,0.001619
2579.3178,0.001454
2581.1815,0.001272
2583.0451,0.001235
2584.9088,0.001468
2586.7725,0.001705
2588.6361,0.001878
2590.4998,0.001925
2592.3635,0.002015
2594.2271,0.001899
2596.0908,0.001797
2597.9545,0.001934
2599.8181,0.001746
2601.6818,0.001558
2603.5455,0.001723
2605.4091,0.001757
2607.2728,0.001553
2609.1365,0.001382
2611.0002,0.001738
2612.8638,0.001921
2614.7275,0.001784
2616.5912,0.001666
2618.4548,0.001587
2620.3185,0.001820
2622.1822,0.002139
2624.0458,0.002134
2625.9095,0.001673
