Wavenumber,Intensity
600.1014,0.058987
601.9651,0.064425
603.8287,0.057634
605.6924,0.059179
607.5561,0.060861
609.4197,0.060734
611.2834,0.054940
613.1471,0.042468
615.0107,0.042856
616.8744,0.049805
618.7381,0.052420
620.6017,0.055585
622.4654,0.052798
624.3291,0.046935
626.1928,0.044464
628.0564,0.044735
629.9201,0.047240
631.7838,0.049568
633.6474,0.050387
635.5111,0.050772
637.3748,0.047444
639.2384,0.046466
641.1021,0.047499
642.9658,0.046439
644.8294,0.046332
646.6931,0.046918
648.5568,0.046774
650.4205,0.046925
652.2841,0.046191
654.1478,0.045150
656.0115,0.046051
657.8751,0.046468
659.7388,0.046768
661.6025,0.046122
663.4661,0.044752
665.3298,0.043866
667.1935,0.044585
669.0571,0.044979
670.9208,0.043041
672.7845,0.043633
674.6481,0.044708
676.5118,0.044608
678.3755,0.043630
680.2392,0.043281
682.1028,0.043116
683.9665,0.042524
685.8302,0.042140
687.6938,0.041437
689.5575,0.041520
691.4212,0.042220
693.2848,0.042494
695.1485,0.042324
697.0122,0.041670
698.8758,0.041208
700.7395,0.040687
702.6032,0.040258
704.4669,0.040088
706.3305,0.040415
708.1942,0.041116
710.0579,0.042664
711.9215,0.043181
713.7852,0.041786
715.6489,0.039990
717.5125,0.038763
719.3762,0.037755
721.2399,0.037273
723.1035,0.037271
724.9672,0.037300
726.8309,0.036775
728.6945,0.036453
730.5582,0.036364
732.4219,0.036102
734.2856,0.035423
736.1492,0.035276
738.0129,0.035708
739.8766,0.035814
741.7402,0.035505
743.6039,0.035354
745.4676,0.035293
747.3312,0.035125
749.1949,0.034957
751.0586,0.035252
752.9222,0.035278
754.7859,0.035160
756.6496,0.035019
758.5132,0.034763
760.3769,0.034651
762.2406,0.034688
764.1043,0.034330
765.9679,0.034035
767.8316,0.034071
769.6953,0.034197
771.5589,0.034107
773.4226,0.034030
775.2863,0.033941
777.1499,0.033920
779.0136,0.033784
780.8773,0.033435
782.7409,0.033060
784.6046,0.032513
786.4683,0.032461
788.3320,0.032563
790.1956,0.032661
792.0593,0.032708
793.9230,0.032587
795.7866,0.032325
797.6503,0.031739
799.5140,0.031159
801.3776,0.031094
803.2413,0.031145
805.1050,0.030875
806.9686,0.030409
808.8323,0.029940
810.6960,0.029650
812.5596,0.029533
814.4233,0.029376
816.2870,0.029296
818.1507,0.029407
820.0143,0.029322
821.8780,0.028984
823.7417,0.028721
825.6053,0.028658
827.4690,0.028711
829.3327,0.028913
831.1963,0.029007
833.0600,0.029178
834.9237,0.029262
836.7873,0.029215
838.6510,0.029348
840.5147,0.029788
842.3784,0.030182
844.2420,0.030402
846.1057,0.030816
847.9694,0.031169
849.8330,0.031072
851.6967,0.031337
853.5604,0.031814
855.4240,0.032139
857.2877,0.032618
859.1514,0.033312
861.0150,0.034103
862.8787,0.035122
864.7424,0.036178
866.6060,0.037337
868.4697,0.039222
870.3334,0.041759
872.1971,0.043921
874.0607,0.044823
875.9244,0.044249
877.7881,0.042432
879.6517,0.039884
881.5154,0.037423
883.3791,0.035497
885.2427,0.033642
887.1064,0.032107
888.9701,0.031591
890.8337,0.031803
892.6974,0.031962
894.5611,0.032073
896.4247,0.032424
898.2884,0.032638
900.1521,0.032653
902.0158,0.032747
903.8794,0.033033
905.7431,0.033359
907.6068,0.033552
909.4704,0.033893
911.3341,0.034141
913.1978,0.034179
915.0614,0.034343
916.9251,0.034596
918.7888,0.034799
920.6524,0.034931
922.5161,0.035128
924.3798,0.035398
926.2435,0.035644
928.1071,0.035752
929.9708,0.035845
931.8345,0.036213
933.6981,0.036567
935.5618,0.036796
937.4255,0.037139
939.2891,0.037368
941.1528,0.037541
943.0165,0.037909
944.8801,0.038339
946.7438,0.038725
948.6075,0.039130
950.4711,0.039664
952.3348,0.040289
954.1985,0.040859
956.0622,0.041368
957.9258,0.041918
959.7895,0.042529
961.6532,0.043053
963.5168,0.043544
965.3805,0.044142
967.2442,0.044784
969.1078,0.045419
970.9715,0.045984
972.8352,0.046470
974.6988,0.047042
976.5625,0.047623
978.4262,0.048282
980.2899,0.048972
982.1535,0.049645
984.0172,0.050252
985.8809,0.050761
987.7445,0.051307
989.6082,0.051771
991.4719,0.052174
993.3355,0.052670
995.1992,0.053114
997.0629,0.053409
998.9265,0.053696
1000.7902,0.054010
1002.6539,0.054207
1004.5175,0.054388
1006.3812,0.054612
1008.2449,0.054710
1010.1086,0.054923
1011.9722,0.055263
1013.8359,0.055443
1015.6996,0.055568
1017.5632,0.055580
1019.4269,0.055434
1021.2906,0.055287
1023.1542,0.055082
1025.0179,0.054836
1026.8816,0.054680
1028.7452,0.054363
1030.6089,0.053935
1032.4726,0.053522
1034.3362,0.053001
1036.1999,0.052445
1038.0636,0.051958
1039.9273,0.051354
1041.7909,0.050665
1043.6546,0.050030
1045.5183,0.049465
1047.3819,0.048769
1049.2456,0.048054
1051.1093,0.047440
1052.9729,0.046864
1054.8366,0.046218
1056.7003,0.045722
1058.5639,0.045217
1060.4276,0.044555
1062.2913,0.043951
1064.1550,0.043390
1066.0186,0.042778
1067.8823,0.042355
1069.7460,0.041992
1071.6096,0.041652
1073.4733,0.041416
1075.3370,0.041184
1077.2006,0.040794
1079.0643,0.040287
1080.9280,0.039741
1082.7916,0.039209
1084.6553,0.038537
1086.5190,0.037748
1088.3826,0.037034
1090.2463,0.036397
1092.1100,0.035762
1093.9737,0.035285
1095.8373,0.034831
1097.7010,0.034288
1099.5647,0.033811
1101.4283,0.033443
1103.2920,0.033156
1105.1557,0.032802
1107.0193,0.032367
1108.8830,0.031971
1110.7467,0.031639
1112.6103,0.031314
1114.4740,0.030965
1116.3377,0.030614
1118.2014,0.030237
1120.0650,0.029832
1121.9287,0.029424
1123.7924,0.029117
1125.6560,0.028743
1127.5197,0.028358
1129.3834,0.028061
1131.2470,0.027740
1133.1107,0.027395
1134.9744,0.027188
1136.8380,0.027000
1138.7017,0.026692
1140.5654,0.026476
1142.4290,0.026361
1144.2927,0.026105
1146.1564,0.025792
1148.0201,0.025571
1149.8837,0.025408
1151.7474,0.025103
1153.6111,0.024580
1155.4747,0.024041
1157.3384,0.023601
1159.2021,0.023239
1161.0657,0.022789
1162.9294,0.022167
1164.7931,0.021527
1166.6567,0.020964
1168.5204,0.020406
1170.3841,0.019805
1172.2477,0.019263
1174.1114,0.018761
1175.9751,0.018196
1177.8388,0.017608
1179.7024,0.017080
1181.5661,0.016672
1183.4298,0.016303
1185.2934,0.016000
1187.1571,0.015811
1189.0208,0.015592
1190.8844,0.015386
1192.7481,0.015255
1194.6118,0.015212
1196.4754,0.015308
1198.3391,0.015392
1200.2028,0.015377
1202.0665,0.015347
1203.9301,0.015361
1205.7938,0.015385
1207.6575,0.015372
1209.5211,0.015300
1211.3848,0.015267
1213.2485,0.015308
1215.1121,0.015349
1216.9758,0.015421
1218.8395,0.015500
1220.7031,0.015562
1222.5668,0.015681
1224.4305,0.015786
1226.2941,0.015849
1228.1578,0.015917
1230.0215,0.016020
1231.8852,0.016063
1233.7488,0.016089
1235.6125,0.016181
1237.4762,0.016166
1239.3398,0.016116
1241.2035,0.016138
1243.0672,0.016123
1244.9308,0.016066
1246.7945,0.015940
1248.6582,0.015792
1250.5218,0.015784
1252.3855,0.015770
1254.2492,0.015684
1256.1129,0.015644
1257.9765,0.015629
1259.8402,0.015609
1261.7039,0.015467
1263.5675,0.015335
1265.4312,0.015336
1267.2949,0.015233
1269.1585,0.015154
1271.0222,0.015169
1272.8859,0.015156
1274.7495,0.015218
1276.6132,0.015301
1278.4769,0.015323
1280.3405,0.015314
1282.2042,0.015378
1284.0679,0.015443
1285.9316,0.015511
1287.7952,0.015561
1289.6589,0.015585
1291.5226,0.015679
1293.3862,0.015807
1295.2499,0.015902
1297.1136,0.016022
1298.9772,0.016212
1300.8409,0.016363
1302.7046,0.016530
1304.5682,0.016662
1306.4319,0.016736
1308.2956,0.016762
1310.1592,0.016867
1312.0229,0.017073
1313.8866,0.017259
1315.7503,0.017400
1317.6139,0.017516
1319.4776,0.017655
1321.3413,0.017734
1323.2049,0.017839
1325.0686,0.017951
1326.9323,0.018015
1328.7959,0.018199
1330.6596,0.018436
1332.5233,0.018598
1334.3869,0.018793
1336.2506,0.019018
1338.1143,0.019225
1339.9780,0.019446
1341.8416,0.019589
1343.7053,0.019725
1345.5690,0.019960
1347.4326,0.020217
1349.2963,0.020500
1351.1600,0.020850
1353.0236,0.021186
1354.8873,0.021441
1356.7510,0.021664
1358.6146,0.021944
1360.4783,0.022294
1362.3420,0.022784
1364.2056,0.023319
1366.0693,0.023701
1367.9330,0.024029
1369.7967,0.024429
1371.6603,0.024850
1373.5240,0.025257
1375.3877,0.025579
1377.2513,0.025878
1379.1150,0.026275
1380.9787,0.026719
1382.8423,0.027109
1384.7060,0.027472
1386.5697,0.028006
1388.4333,0.028494
1390.2970,0.028747
1392.1607,0.029188
1394.0244,0.029671
1395.8880,0.029954
1397.7517,0.030197
1399.6154,0.030395
1401.4790,0.030591
1403.3427,0.031001
1405.2064,0.031362
1407.0700,0.031452
1408.9337,0.031475
1410.7974,0.031494
1412.6610,0.031479
1414.5247,0.031364
1416.3884,0.031206
1418.2520,0.031183
1420.1157,0.030854
1421.9794,0.030454
1423.8431,0.030159
1425.7067,0.029742
1427.5704,0.029342
1429.4341,0.029027
1431.2977,0.028729
1433.1614,0.028403
1435.0251,0.028353
1436.8887,0.028359
1438.7524,0.027835
1440.6161,0.027503
1442.4797,0.027373
1444.3434,0.027143
1446.2071,0.026885
1448.0707,0.026697
1449.9344,0.026474
1451.7981,0.026299
1453.6618,0.025978
1455.5254,0.025752
1457.3891,0.025647
1459.2528,0.025059
1461.1164,0.024212
1462.9801,0.023731
1464.8438,0.023565
1466.7074,0.023031
1468.5711,0.022325
1470.4348,0.021950
1472.2984,0.021785
1474.1621,0.021112
1476.0258,0.020523
1477.8895,0.020118
1479.7531,0.019676
1481.6168,0.019320
1483.4805,0.019004
1485.3441,0.018853
1487.2078,0.018808
1489.0715,0.018735
1490.9351,0.018784
1492.7988,0.018694
1494.6625,0.018581
1496.5261,0.018661
1498.3898,0.018830
1500.2535,0.018925
1502.1171,0.018699
1503.9808,0.018342
1505.8445,0.018707
1507.7082,0.019589
1509.5718,0.019280
1511.4355,0.019130
1513.2992,0.018992
1515.1628,0.018998
1517.0265,0.019176
1518.8902,0.018983
1520.7538,0.019286
1522.6175,0.019384
1524.4812,0.018684
1526.3448,0.018595
1528.2085,0.018590
1530.0722,0.018108
1531.9359,0.018027
1533.7995,0.018431
1535.6632,0.017753
1537.5269,0.016991
1539.3905,0.017337
1541.2542,0.017941
1543.1179,0.017526
1544.9815,0.017063
1546.8452,0.016332
1548.7089,0.015881
1550.5725,0.015541
1552.4362,0.015180
1554.2999,0.014963
1556.1635,0.014182
1558.0272,0.014023
1559.8909,0.014907
1561.7546,0.013890
1563.6182,0.013210
1565.4819,0.013064
1567.3456,0.012772
1569.2092,0.012807
1571.0729,0.012977
1572.9366,0.012455
1574.8002,0.012331
1576.6639,0.013029
1578.5276,0.012878
1580.3912,0.012555
1582.2549,0.012704
1584.1186,0.012871
1585.9822,0.012932
1587.8459,0.013021
1589.7096,0.013099
1591.5733,0.013229
1593.4369,0.013448
1595.3006,0.013655
1597.1643,0.013818
1599.0279,0.013859
1600.8916,0.013816
1602.7553,0.013979
1604.6189,0.014335
1606.4826,0.014569
1608.3463,0.014695
1610.2099,0.014960
1612.0736,0.015223
1613.9373,0.015135
1615.8010,0.015637
1617.6646,0.016786
1619.5283,0.016612
1621.3920,0.016420
1623.2556,0.017231
1625.1193,0.017852
1626.9830,0.018042
1628.8466,0.018536
1630.7103,0.018739
1632.5740,0.018516
1634.4376,0.018664
1636.3013,0.019549
1638.1650,0.019499
1640.0286,0.019176
1641.8923,0.019090
1643.7560,0.018667
1645.6197,0.018843
1647.4833,0.019673
1649.3470,0.018606
1651.2107,0.017556
1653.0743,0.018661
1654.9380,0.018634
1656.8017,0.017274
1658.6653,0.016513
1660.5290,0.016097
1662.3927,0.015971
1664.2563,0.015564
1666.1200,0.014617
1667.9837,0.014085
1669.8474,0.014139
1671.7110,0.013217
1673.5747,0.012130
1675.4384,0.011757
1677.3020,0.011179
1679.1657,0.010514
1681.0294,0.009898
1682.8930,0.009559
1684.7567,0.009865
1686.6204,0.008877
1688.4840,0.007897
1690.3477,0.007386
1692.2114,0.006574
1694.0750,0.005925
1695.9387,0.005718
1697.8024,0.005052
1699.6661,0.004655
1701.5297,0.004427
1703.3934,0.003871
1705.2571,0.003614
1707.1207,0.003272
1708.9844,0.002817
1710.8481,0.002553
1712.7117,0.002349
1714.5754,0.002259
1716.4391,0.002387
1718.3027,0.002531
1720.1664,0.002072
1722.0301,0.001654
1723.8937,0.001536
1725.7574,0.001352
1727.6211,0.001232
1729.4848,0.001270
1731.3484,0.001018
1733.2121,0.001049
1735.0758,0.001454
1736.9394,0.000922
1738.8031,0.000489
1740.6668,0.000513
1742.5304,0.000596
1744.3941,0.000497
1746.2578,0.000218
1748.1214,-0.000147
1749.9851,-0.000240
1751.8488,0.000013
1753.7125,-0.000185
1755.5761,-0.000544
1757.4398,-0.000575
1759.3035,-0.000558
1761.1671,-0.000525
1763.0308,-0.000533
1764.8945,-0.000715
1766.7581,-0.000821
1768.6218,-0.000827
1770.4855,-0.000706
1772.3491,-0.000353
1774.2128,-0.000370
1776.0765,-0.000678
1777.9401,-0.000937
1779.8038,-0.000927
1781.6675,-0.000770
1783.5312,-0.000623
1785.3948,-0.000558
1787.2585,-0.000699
1789.1222,-0.000612
1790.9858,-0.000293
1792.8495,-0.000139
1794.7132,-0.000378
1796.5768,-0.000586
1798.4405,-0.000515
1800.3042,-0.000449
1802.1678,-0.000572
1804.0315,-0.000877
1805.8952,-0.001002
1807.7589,-0.000854
1809.6225,-0.000842
1811.4862,-0.000962
1813.3499,-0.000997
1815.2135,-0.001075
1817.0772,-0.001082
1818.9409,-0.001028
1820.8045,-0.000955
1822.6682,-0.001038
1824.5319,-0.001204
1826.3955,-0.001047
1828.2592,-0.001001
1830.1229,-0.001107
1831.9865,-0.001162
1833.8502,-0.001181
1835.7139,-0.001156
1837.5776,-0.001044
1839.4412,-0.000964
1841.3049,-0.001041
1843.1686,-0.001036
1845.0322,-0.000842
1846.8959,-0.000843
1848.7596,-0.001023
1850.6232,-0.001119
1852.4869,-0.001074
1854.3506,-0.000933
1856.2142,-0.001030
1858.0779,-0.001186
1859.9416,-0.001080
1861.8052,-0.000952
1863.6689,-0.000976
1865.5326,-0.001058
1867.3963,-0.000993
1869.2599,-0.000643
1871.1236,-0.000651
1872.9873,-0.001075
1874.8509,-0.001168
1876.7146,-0.001036
1878.5783,-0.001057
1880.4419,-0.001104
1882.3056,-0.000948
1884.1693,-0.000729
1886.0329,-0.000863
1887.8966,-0.001155
1889.7603,-0.000994
1891.6240,-0.000867
1893.4876,-0.001044
1895.3513,-0.001143
1897.2150,-0.001033
1899.0786,-0.001000
1900.9423,-0.000921
1902.8060,-0.000836
1904.6696,-0.000948
1906.5333,-0.001016
1908.3970,-0.001030
1910.2606,-0.000810
1912.1243,-0.000820
1913.9880,-0.001091
1915.8516,-0.001075
1917.7153,-0.000637
1919.5790,-0.000602
1921.4427,-0.001143
1923.3063,-0.001358
1925.1700,-0.001219
1927.0337,-0.000884
1928.8973,-0.000598
1930.7610,-0.000535
1932.6247,-0.000523
1934.4883,-0.000815
1936.3520,-0.001170
1938.2157,-0.000985
1940.0793,-0.000848
1941.9430,-0.000865
1943.8067,-0.000637
1945.6704,-0.000362
1947.5340,-0.000680
1949.3977,-0.001065
1951.2614,-0.001005
1953.1250,-0.001299
1954.9887,-0.001798
1956.8524,-0.001724
1958.7160,-0.001696
1960.5797,-0.001861
1962.4434,-0.001199
1964.3070,-0.000441
1966.1707,0.000000
1968.0344,0.000070
1969.8980,-0.000938
1971.7617,-0.001702
1973.6254,-0.001445
1975.4891,-0.001405
1977.3527,-0.001100
1979.2164,-0.000558
1981.0801,-0.000112
1982.9437,0.000004
1984.8074,-0.000350
1986.6711,-0.000149
1988.5347,-0.000202
1990.3984,-0.000577
1992.2621,-0.000553
1994.1257,-0.000757
1995.9894,-0.001321
1997.8531,-0.001113
1999.7167,-0.000391
2001.5804,-0.000412
2003.4441,-0.000601
2005.3078,-0.000590
2007.1714,-0.000440
2009.0351,-0.000297
2010.8988,-0.000762
2012.7624,-0.001242
2014.6261,-0.001144
2016.4898,-0.000567
2018.3534,-0.000737
2020.2171,-0.001396
2022.0808,-0.000549
2023.9444,0.000657
2025.8081,-0.000051
2027.6718,-0.001260
2029.5355,-0.001380
2031.3991,-0.000640
2033.2628,0.000249
2035.1265,0.000052
2036.9901,-0.000224
2038.8538,-0.000370
2040.7175,-0.001047
2042.5811,-0.001350
2044.4448,-0.001024
2046.3085,-0.000193
2048.1721,0.000332
2050.0358,0.000255
2051.8995,0.000011
2053.7631,-0.000213
2055.6268,-0.000436
2057.4905,-0.000508
2059.3542,-0.000290
2061.2178,-0.000574
2063.0815,-0.000876
2064.9452,-0.000511
2066.8088,-0.000282
2068.6725,-0.000225
2070.5362,-0.000451
2072.3998,-0.000783
2074.2635,-0.000496
2076.1272,-0.000560
2077.9908,-0.000907
2079.8545,-0.000550
2081.7182,-0.000100
2083.5819,-0.000328
2085.4455,-0.000845
2087.3092,-0.000829
2089.1729,-0.000613
2091.0365,-0.000527
2092.9002,-0.000295
2094.7639,-0.000473
2096.6275,-0.000902
2098.4912,-0.000582
2100.3549,-0.000397
2102.2185,-0.000799
2104.0822,-0.000889
2105.9459,-0.000756
2107.8095,-0.000791
2109.6732,-0.000847
2111.5369,-0.000987
2113.4006,-0.000839
2115.2642,-0.000383
2117.1279,-0.000273
2118.9916,-0.000808
2120.8552,-0.001538
2122.7189,-0.001414
2124.5826,-0.001032
2126.4462,-0.001393
2128.3099,-0.001766
2130.1736,-0.001756
2132.0372,-0.001540
2133.9009,-0.001342
2135.7646,-0.001122
2137.6282,-0.001026
2139.4919,-0.001253
2141.3556,-0.000999
2143.2193,-0.000762
2145.0829,-0.001094
2146.9466,-0.001335
2148.8103,-0.001298
2150.6739,-0.001533
2152.5376,-0.001759
2154.4013,-0.001405
2156.2649,-0.001409
2158.1286,-0.001515
2159.9923,-0.000523
2161.8559,0.000005
2163.7196,-0.000123
2165.5833,-0.000105
2167.4470,-0.000358
2169.3106,-0.000197
2171.1743,0.000106
2173.0380,-0.000346
2174.9016,-0.000839
2176.7653,-0.000687
2178.6290,-0.000661
2180.4926,-0.000624
2182.3563,-0.000496
2184.2200,-0.000881
2186.0836,-0.001030
2187.9473,-0.000680
2189.8110,-0.000281
2191.6746,-0.000187
2193.5383,-0.000460
2195.4020,-0.000508
2197.2657,-0.000542
2199.1293,-0.000767
2200.9930,-0.000898
2202.8567,-0.000997
2204.7203,-0.000529
2206.5840,-0.000323
2208.4477,-0.001175
2210.3113,-0.001390
2212.1750,-0.000591
2214.0387,-0.000883
2215.9023,-0.001427
2217.7660,-0.001021
2219.6297,-0.000706
2221.4934,-0.000603
2223.3570,-0.000627
2225.2207,-0.000655
2227.0844,-0.000657
2228.9480,-0.000792
2230.8117,-0.000910
2232.6754,-0.000988
2234.5390,-0.000794
2236.4027,-0.000604
2238.2664,-0.000511
2240.1300,-0.000794
2241.9937,-0.001442
2243.8574,-0.001275
2245.7210,-0.001031
2247.5847,-0.000886
2249.4484,-0.000207
2251.3121,-0.000273
2253.1757,-0.000863
2255.0394,-0.000964
2256.9031,-0.000818
2258.7667,-0.000727
2260.6304,-0.000774
2262.4941,-0.000890
2264.3577,-0.000823
2266.2214,-0.000819
2268.0851,-0.001026
2269.9487,-0.001433
2271.8124,-0.001713
2273.6761,-0.001292
2275.5397,-0.000899
2277.4034,-0.001054
2279.2671,-0.001107
2281.1308,-0.000845
2282.9944,-0.000835
2284.8581,-0.000990
2286.7218,-0.000790
2288.5854,-0.000897
2290.4491,-0.001309
2292.3128,-0.001146
2294.1764,-0.000676
2296.0401,-0.000637
2297.9038,-0.000923
2299.7674,-0.001020
2301.6311,-0.000982
2303.4948,-0.001009
2305.3585,-0.001272
2307.2221,-0.001437
2309.0858,-0.001177
2310.9495,-0.001061
2312.8131,-0.000881
2314.6768,-0.000414
2316.5405,-0.000483
2318.4041,-0.000766
2320.2678,-0.000688
2322.1315,-0.000462
2323.9951,-0.000374
2325.8588,-0.000771
2327.7225,-0.001216
2329.5861,-0.001092
2331.4498,-0.000833
2333.3135,-0.000870
2335.1772,-0.001064
2337.0408,-0.001167
2338.9045,-0.001059
2340.7682,-0.001332
2342.6318,-0.001410
2344.4955,-0.001113
2346.3592,-0.001078
2348.2228,-0.001182
2350.0865,-0.001255
2351.9502,-0.001327
2353.8138,-0.001516
2355.6775,-0.001218
2357.5412,-0.000583
2359.4049,-0.000588
2361.2685,-0.000877
2363.1322,-0.001072
2364.9959,-0.000870
2366.8595,-0.000998
2368.7232,-0.001426
2370.5869,-0.001538
2372.4505,-0.001485
2374.3142,-0.001321
2376.1779,-0.001389
2378.0415,-0.001569
2379.9052,-0.001730
2381.7689,-0.001868
2383.6325,-0.001808
2385.4962,-0.001696
2387.3599,-0.001802
2389.2236,-0.001986
2391.0872,-0.002103
2392.9509,-0.002144
2394.8146,-0.002078
2396.6782,-0.001916
2398.5419,-0.001648
2400.4056,-0.001744
2402.2692,-0.002075
2404.1329,-0.001985
2405.9966,-0.001602
2407.8602,-0.001592
2409.7239,-0.002059
2411.5876,-0.002336
2413.4512,-0.002027
2415.3149,-0.001702
2417.1786,-0.001820
2419.0423,-0.001830
2420.9059,-0.001673
2422.7696,-0.001819
2424.6333,-0.001838
2426.4969,-0.001696
2428.3606,-0.001735
2430.2243,-0.001484
2432.0879,-0.001372
2433.9516,-0.001781
2435.8153,-0.002008
2437.6789,-0.001972
2439.5426,-0.001981
2441.4063,-0.002057
2443.2700,-0.001906
2445.1336,-0.001579
2446.9973,-0.001535
2448.8610,-0.001699
2450.7246,-0.001788
2452.5883,-0.001592
2454.4520,-0.001463
2456.3156,-0.001749
2458.1793,-0.001829
2460.0430,-0.001564
2461.9066,-0.001671
2463.7703,-0.001784
2465.6340,-0.001638
2467.4976,-0.001567
2469.3613,-0.001686
2471.2250,-0.001602
2473.0887,-0.001411
2474.9523,-0.001478
2476.8160,-0.001638
2478.6797,-0.001700
2480.5433,-0.001831
2482.4070,-0.001987
2484.2707,-0.001729
2486.1343,-0.001523
2487.9980,-0.001444
2489.8617,-0.001169
2491.7253,-0.001334
2493.5890,-0.001433
2495.4527,-0.001115
2497.3164,-0.001445
2499.1800,-0.001739
2501.0437,-0.001625
2502.9074,-0.001573
2504.7710,-0.001522
2506.6347,-0.001567
2508.4984,-0.001594
2510.3620,-0.001084
2512.2257,-0.000741
2514.0894,-0.001203
2515.9530,-0.001515
2517.8167,-0.001550
2519.6804,-0.001405
2521.5440,-0.001236
2523.4077,-0.001255
2525.2714,-0.001151
2527.1351,-0.000968
2528.9987,-0.000829
2530.8624,-0.001107
2532.7261,-0.001341
2534.5897,-0.001502
2536.4534,-0.001621
2538.3171,-0.001406
