Wavenumber,Intensity
600.1014,0.023895
601.9651,0.024229
603.8287,0.022777
605.6924,0.020597
607.5561,0.024663
609.4197,0.025736
611.2834,0.027164
613.1471,0.025130
615.0107,0.027852
616.8744,0.029993
618.7381,0.031888
620.6017,0.031624
622.4654,0.027035
624.3291,0.028315
626.1928,0.031355
628.0564,0.028784
629.9201,0.028695
631.7838,0.030954
633.6474,0.032072
635.5111,0.033027
637.3748,0.033250
639.2384,0.032201
641.1021,0.031085
642.9658,0.031362
644.8294,0.031850
646.6931,0.034010
648.5568,0.035196
650.4205,0.032758
652.2841,0.030280
654.1478,0.029962
656.0115,0.031771
657.8751,0.032052
659.7388,0.031751
661.6025,0.030868
663.4661,0.032232
665.3298,0.033708
667.1935,0.037875
669.0571,0.038818
670.9208,0.034997
672.7845,0.034491
674.6481,0.034807
676.5118,0.035314
678.3755,0.036025
680.2392,0.036613
682.1028,0.037923
683.9665,0.039443
685.8302,0.040311
687.6938,0.041528
689.5575,0.043213
691.4212,0.046598
693.2848,0.050580
695.1485,0.052863
697.0122,0.051264
698.8758,0.046845
700.7395,0.042483
702.6032,0.040006
704.4669,0.038110
706.3305,0.036995
708.1942,0.037135
710.0579,0.037171
711.9215,0.035970
713.7852,0.034832
715.6489,0.034592
717.5125,0.034848
719.3762,0.035167
721.2399,0.035228
723.1035,0.035270
724.9672,0.035111
726.8309,0.035219
728.6945,0.035610
730.5582,0.035644
732.4219,0.036243
734.2856,0.036870
736.1492,0.037229
738.0129,0.037250
739.8766,0.037396
741.7402,0.037799
743.6039,0.038157
745.4676,0.038708
747.3312,0.039478
749.1949,0.040119
751.0586,0.040967
752.9222,0.042037
754.7859,0.043255
756.6496,0.044607
758.5132,0.045970
760.3769,0.047458
762.2406,0.048961
764.1043,0.050842
765.9679,0.053740
767.8316,0.057017
769.6953,0.060937
771.5589,0.065773
773.4226,0.071533
775.2863,0.077101
777.1499,0.081248
779.0136,0.082777
780.8773,0.080856
782.7409,0.077042
784.6046,0.072906
786.4683,0.069544
788.3320,0.068699
790.1956,0.070242
792.0593,0.072862
793.9230,0.075948
795.7866,0.078641
797.6503,0.078796
799.5140,0.075975
801.3776,0.070700
803.2413,0.063768
805.1050,0.056193
806.9686,0.048753
808.8323,0.042371
810.6960,0.037613
812.5596,0.034138
814.4233,0.031677
816.2870,0.029935
818.1507,0.028481
820.0143,0.027406
821.8780,0.026634
823.7417,0.025897
825.6053,0.025376
827.4690,0.025405
829.3327,0.025748
831.1963,0.025973
833.0600,0.026068
834.9237,0.026132
836.7873,0.025970
838.6510,0.025557
840.5147,0.025311
842.3784,0.024933
844.2420,0.024814
846.1057,0.024898
847.9694,0.025088
849.8330,0.025290
851.6967,0.025493
853.5604,0.025766
855.4240,0.026070
857.2877,0.026217
859.1514,0.026284
861.0150,0.026368
862.8787,0.026533
864.7424,0.026768
866.6060,0.027035
868.4697,0.027088
870.3334,0.027334
872.1971,0.027855
874.0607,0.028241
875.9244,0.028582
877.7881,0.028914
879.6517,0.029275
881.5154,0.029711
883.3791,0.030009
885.2427,0.030289
887.1064,0.030649
888.9701,0.031096
890.8337,0.031482
892.6974,0.031962
894.5611,0.032444
896.4247,0.032866
898.2884,0.033383
900.1521,0.033977
902.0158,0.034458
903.8794,0.034881
905.7431,0.035426
907.6068,0.036043
909.4704,0.036746
911.3341,0.037522
913.1978,0.038054
915.0614,0.038503
916.9251,0.038992
918.7888,0.039607
920.6524,0.039983
922.5161,0.040338
924.3798,0.040921
926.2435,0.041609
928.1071,0.042310
929.9708,0.043177
931.8345,0.043881
933.6981,0.044410
935.5618,0.045067
937.4255,0.045797
939.2891,0.046547
941.1528,0.047493
943.0165,0.048358
944.8801,0.049125
946.7438,0.049769
948.6075,0.050126
950.4711,0.050287
952.3348,0.050342
954.1985,0.050381
956.0622,0.050527
957.9258,0.050623
959.7895,0.050830
961.6532,0.051147
963.5168,0.051631
965.3805,0.052273
967.2442,0.052894
969.1078,0.053586
970.9715,0.054433
972.8352,0.055236
974.6988,0.056056
976.5625,0.056923
978.4262,0.057855
980.2899,0.058813
982.1535,0.059825
984.0172,0.060858
985.8809,0.062015
987.7445,0.063186
989.6082,0.064357
991.4719,0.065538
993.3355,0.066773
995.1992,0.068026
997.0629,0.069303
998.9265,0.070457
1000.7902,0.071619
1002.6539,0.072732
1004.5175,0.073689
1006.3812,0.074672
1008.2449,0.075751
1010.1086,0.076778
1011.9722,0.077880
1013.8359,0.079068
1015.6996,0.080385
1017.5632,0.081644
1019.4269,0.082854
1021.2906,0.084227
1023.1542,0.085720
1025.0179,0.087177
1026.8816,0.088685
1028.7452,0.090138
1030.6089,0.091603
1032.4726,0.093123
1034.3362,0.094689
1036.1999,0.096144
1038.0636,0.097505
1039.9273,0.098812
1041.7909,0.100074
1043.6546,0.101173
1045.5183,0.102410
1047.3819,0.103711
1049.2456,0.104907
1051.1093,0.105955
1052.9729,0.106948
1054.8366,0.107992
1056.7003,0.109047
1058.5639,0.109984
1060.4276,0.110926
1062.2913,0.111679
1064.1550,0.112205
1066.0186,0.112270
1067.8823,0.111996
1069.7460,0.111576
1071.6096,0.111165
1073.4733,0.110849
1075.3370,0.110402
1077.2006,0.109665
1079.0643,0.108848
1080.9280,0.107812
1082.7916,0.106540
1084.6553,0.105076
1086.5190,0.103397
1088.3826,0.101433
1090.2463,0.099429
1092.1100,0.097329
1093.9737,0.095079
1095.8373,0.092738
1097.7010,0.090595
1099.5647,0.088393
1101.4283,0.086061
1103.2920,0.083853
1105.1557,0.081812
1107.0193,0.079834
1108.8830,0.077971
1110.7467,0.076170
1112.6103,0.074616
1114.4740,0.073300
1116.3377,0.072269
1118.2014,0.071321
1120.0650,0.069951
1121.9287,0.068076
1123.7924,0.066165
1125.6560,0.064333
1127.5197,0.062506
1129.3834,0.060639
1131.2470,0.058901
1133.1107,0.057308
1134.9744,0.055913
1136.8380,0.054526
1138.7017,0.053061
1140.5654,0.051697
1142.4290,0.050560
1144.2927,0.049518
1146.1564,0.048449
1148.0201,0.047352
1149.8837,0.046336
1151.7474,0.045439
1153.6111,0.044743
1155.4747,0.044337
1157.3384,0.044579
1159.2021,0.045716
1161.0657,0.047256
1162.9294,0.047892
1164.7931,0.047167
1166.6567,0.045647
1168.5204,0.043912
1170.3841,0.042191
1172.2477,0.040630
1174.1114,0.039272
1175.9751,0.038080
1177.8388,0.036981
1179.7024,0.036030
1181.5661,0.035194
1183.4298,0.034444
1185.2934,0.033708
1187.1571,0.032992
1189.0208,0.032320
1190.8844,0.031608
1192.7481,0.030781
1194.6118,0.029999
1196.4754,0.029176
1198.3391,0.028250
1200.2028,0.027335
1202.0665,0.026462
1203.9301,0.025409
1205.7938,0.024301
1207.6575,0.023265
1209.5211,0.022190
1211.3848,0.021015
1213.2485,0.019784
1215.1121,0.018493
1216.9758,0.017242
1218.8395,0.016008
1220.7031,0.014848
1222.5668,0.013822
1224.4305,0.012925
1226.2941,0.012094
1228.1578,0.011424
1230.0215,0.010851
1231.8852,0.010359
1233.7488,0.009962
1235.6125,0.009611
1237.4762,0.009281
1239.3398,0.009070
1241.2035,0.008758
1243.0672,0.008371
1244.9308,0.008016
1246.7945,0.007701
1248.6582,0.007443
1250.5218,0.007260
1252.3855,0.007085
1254.2492,0.006915
1256.1129,0.006700
1257.9765,0.006564
1259.8402,0.006471
1261.7039,0.006316
1263.5675,0.006242
1265.4312,0.006185
1267.2949,0.006081
1269.1585,0.006038
1271.0222,0.006010
1272.8859,0.005856
1274.7495,0.005643
1276.6132,0.005530
1278.4769,0.005481
1280.3405,0.005386
1282.2042,0.005174
1284.0679,0.005015
1285.9316,0.004996
1287.7952,0.005009
1289.6589,0.004857
1291.5226,0.004757
1293.3862,0.004625
1295.2499,0.004446
1297.1136,0.004317
1298.9772,0.004222
1300.8409,0.004064
1302.7046,0.004012
1304.5682,0.004011
1306.4319,0.004086
1308.2956,0.004039
1310.1592,0.003871
1312.0229,0.004032
1313.8866,0.004239
1315.7503,0.004227
1317.6139,0.004328
1319.4776,0.004358
1321.3413,0.004008
1323.2049,0.003633
1325.0686,0.003479
1326.9323,0.003426
1328.7959,0.003392
1330.6596,0.003417
1332.5233,0.003436
1334.3869,0.003428
1336.2506,0.003668
1338.1143,0.004607
1339.9780,0.005323
1341.8416,0.004376
1343.7053,0.003515
1345.5690,0.003244
1347.4326,0.003325
1349.2963,0.003334
1351.1600,0.003257
1353.0236,0.003265
1354.8873,0.003411
1356.7510,0.003475
1358.6146,0.003444
1360.4783,0.003633
1362.3420,0.004829
1364.2056,0.004846
1366.0693,0.003738
1367.9330,0.003498
1369.7967,0.003595
1371.6603,0.003579
1373.5240,0.004389
1375.3877,0.004482
1377.2513,0.004025
1379.1150,0.003750
1380.9787,0.003634
1382.8423,0.003373
1384.7060,0.003117
1386.5697,0.004127
1388.4333,0.004595
1390.2970,0.003895
1392.1607,0.003417
1394.0244,0.004969
1395.8880,0.005774
1397.7517,0.005813
1399.6154,0.005514
1401.4790,0.004068
1403.3427,0.003707
1405.2064,0.003945
1407.0700,0.003859
1408.9337,0.003543
1410.7974,0.003733
1412.6610,0.003640
1414.5247,0.003655
1416.3884,0.004298
1418.2520,0.006537
1420.1157,0.006458
1421.9794,0.005032
1423.8431,0.004722
1425.7067,0.004085
1427.5704,0.003851
1429.4341,0.003983
1431.2977,0.004285
1433.1614,0.003800
1435.0251,0.004459
1436.8887,0.006290
1438.7524,0.005389
1440.6161,0.004151
1442.4797,0.003419
1444.3434,0.003555
1446.2071,0.004072
1448.0707,0.004877
1449.9344,0.004309
1451.7981,0.004156
1453.6618,0.003802
1455.5254,0.005964
1457.3891,0.008631
1459.2528,0.007903
1461.1164,0.004995
1462.9801,0.004022
1464.8438,0.004750
1466.7074,0.004679
1468.5711,0.003784
1470.4348,0.004232
1472.2984,0.007344
1474.1621,0.008074
1476.0258,0.006881
1477.8895,0.004949
1479.7531,0.004197
1481.6168,0.003933
1483.4805,0.003706
1485.3441,0.003986
1487.2078,0.004959
1489.0715,0.006819
1490.9351,0.006761
1492.7988,0.004787
1494.6625,0.004198
1496.5261,0.005311
1498.3898,0.006091
1500.2535,0.005484
1502.1171,0.004481
1503.9808,0.003976
1505.8445,0.007260
1507.7082,0.012255
1509.5718,0.010062
1511.4355,0.006846
1513.2992,0.004940
1515.1628,0.005844
1517.0265,0.007419
1518.8902,0.007156
1520.7538,0.008216
1522.6175,0.008525
1524.4812,0.008246
1526.3448,0.007123
1528.2085,0.006195
1530.0722,0.005140
1531.9359,0.005294
1533.7995,0.005893
1535.6632,0.005011
1537.5269,0.005104
1539.3905,0.007459
1541.2542,0.009939
1543.1179,0.008992
1544.9815,0.007963
1546.8452,0.005305
1548.7089,0.004691
1550.5725,0.004629
1552.4362,0.004819
1554.2999,0.005001
1556.1635,0.005110
1558.0272,0.007942
1559.8909,0.010413
1561.7546,0.007182
1563.6182,0.004939
1565.4819,0.003898
1567.3456,0.003998
1569.2092,0.004828
1571.0729,0.004709
1572.9366,0.003911
1574.8002,0.004208
1576.6639,0.005983
1578.5276,0.005339
1580.3912,0.004106
1582.2549,0.003423
1584.1186,0.003590
1585.9822,0.003375
1587.8459,0.003612
1589.7096,0.003770
1591.5733,0.003977
1593.4369,0.004132
1595.3006,0.004224
1597.1643,0.003932
1599.0279,0.004041
1600.8916,0.004123
1602.7553,0.004231
1604.6189,0.004212
1606.4826,0.004464
1608.3463,0.004677
1610.2099,0.004632
1612.0736,0.004219
1613.9373,0.004006
1615.8010,0.005463
1617.6646,0.006444
1619.5283,0.005320
1621.3920,0.004551
1623.2556,0.005467
1625.1193,0.005555
1626.9830,0.005126
1628.8466,0.004617
1630.7103,0.004247
1632.5740,0.003595
1634.4376,0.005513
1636.3013,0.008004
1638.1650,0.007069
1640.0286,0.005073
1641.8923,0.003963
1643.7560,0.004022
1645.6197,0.005369
1647.4833,0.007050
1649.3470,0.005866
1651.2107,0.004942
1653.0743,0.008245
1654.9380,0.009470
1656.8017,0.006367
1658.6653,0.003871
1660.5290,0.003967
1662.3927,0.005005
1664.2563,0.004945
1666.1200,0.004200
1667.9837,0.004507
1669.8474,0.006527
1671.7110,0.006632
1673.5747,0.005464
1675.4384,0.005626
1677.3020,0.005537
1679.1657,0.005090
1681.0294,0.004092
1682.8930,0.005900
1684.7567,0.007599
1686.6204,0.007463
1688.4840,0.005816
1690.3477,0.004674
1692.2114,0.003933
1694.0750,0.004216
1695.9387,0.005461
1697.8024,0.006179
1699.6661,0.007943
1701.5297,0.007533
1703.3934,0.006925
1705.2571,0.005564
1707.1207,0.005363
1708.9844,0.004742
1710.8481,0.003804
1712.7117,0.003755
1714.5754,0.004433
1716.4391,0.006513
1718.3027,0.008270
1720.1664,0.006208
1722.0301,0.004420
1723.8937,0.003586
1725.7574,0.003526
1727.6211,0.003239
1729.4848,0.003793
1731.3484,0.003957
1733.2121,0.005866
1735.0758,0.006524
1736.9394,0.005626
1738.8031,0.004582
1740.6668,0.004680
1742.5304,0.005208
1744.3941,0.004889
1746.2578,0.004996
1748.1214,0.005764
1749.9851,0.006289
1751.8488,0.005711
1753.7125,0.004350
1755.5761,0.004099
1757.4398,0.004069
1759.3035,0.004257
1761.1671,0.004303
1763.0308,0.004529
1764.8945,0.003847
1766.7581,0.003852
1768.6218,0.004381
1770.4855,0.004959
1772.3491,0.005785
1774.2128,0.006204
1776.0765,0.005032
1777.9401,0.003781
1779.8038,0.004091
1781.6675,0.004060
1783.5312,0.004318
1785.3948,0.004394
1787.2585,0.004177
1789.1222,0.003760
1790.9858,0.004825
1792.8495,0.005630
1794.7132,0.005233
1796.5768,0.004294
1798.4405,0.003837
1800.3042,0.004513
1802.1678,0.004971
1804.0315,0.004277
1805.8952,0.003497
1807.7589,0.003470
1809.6225,0.004026
1811.4862,0.004432
1813.3499,0.004006
1815.2135,0.003325
1817.0772,0.003219
1818.9409,0.003503
1820.8045,0.003505
1822.6682,0.003686
1824.5319,0.004263
1826.3955,0.004153
1828.2592,0.004339
1830.1229,0.004542
1831.9865,0.004623
1833.8502,0.003893
1835.7139,0.003551
1837.5776,0.003935
1839.4412,0.003694
1841.3049,0.003285
1843.1686,0.003751
1845.0322,0.004822
1846.8959,0.005143
1848.7596,0.004325
1850.6232,0.003787
1852.4869,0.003744
1854.3506,0.003618
1856.2142,0.003636
1858.0779,0.003513
1859.9416,0.003863
1861.8052,0.004024
1863.6689,0.004113
1865.5326,0.003950
1867.3963,0.004532
1869.2599,0.005532
1871.1236,0.005523
1872.9873,0.004561
1874.8509,0.004174
1876.7146,0.004096
1878.5783,0.004228
1880.4419,0.004458
1882.3056,0.004148
1884.1693,0.003682
1886.0329,0.003779
1887.8966,0.003905
1889.7603,0.004468
1891.6240,0.004800
1893.4876,0.004212
1895.3513,0.003900
1897.2150,0.004170
1899.0786,0.003737
1900.9423,0.003621
1902.8060,0.003551
1904.6696,0.003522
1906.5333,0.003737
1908.3970,0.004184
1910.2606,0.004061
1912.1243,0.003967
1913.9880,0.003824
1915.8516,0.003800
1917.7153,0.003581
1919.5790,0.003865
1921.4427,0.003966
1923.3063,0.003533
1925.1700,0.003381
1927.0337,0.003408
1928.8973,0.003277
1930.7610,0.003133
1932.6247,0.003286
1934.4883,0.003547
1936.3520,0.003371
1938.2157,0.003330
1940.0793,0.003178
1941.9430,0.003792
1943.8067,0.004579
1945.6704,0.004628
1947.5340,0.003437
1949.3977,0.002894
1951.2614,0.002753
1953.1250,0.003076
1954.9887,0.003227
1956.8524,0.003510
1958.7160,0.003390
1960.5797,0.003079
1962.4434,0.002801
1964.3070,0.002920
1966.1707,0.003160
1968.0344,0.003393
1969.8980,0.003246
1971.7617,0.003786
1973.6254,0.003654
1975.4891,0.003353
1977.3527,0.003937
1979.2164,0.004549
1981.0801,0.003978
1982.9437,0.003891
1984.8074,0.004796
1986.6711,0.005012
1988.5347,0.004264
1990.3984,0.004898
1992.2621,0.005381
1994.1257,0.004625
1995.9894,0.003478
1997.8531,0.003654
1999.7167,0.003699
2001.5804,0.003258
2003.4441,0.002872
2005.3078,0.003337
2007.1714,0.003363
2009.0351,0.002892
2010.8988,0.003140
2012.7624,0.003812
2014.6261,0.003890
2016.4898,0.004095
2018.3534,0.003686
2020.2171,0.003527
2022.0808,0.003749
2023.9444,0.003327
2025.8081,0.002593
2027.6718,0.002790
2029.5355,0.003096
2031.3991,0.003624
2033.2628,0.003521
2035.1265,0.003348
2036.9901,0.003290
2038.8538,0.003967
2040.7175,0.004450
2042.5811,0.004139
2044.4448,0.003307
2046.3085,0.002787
2048.1721,0.002621
2050.0358,0.003299
2051.8995,0.004064
2053.7631,0.003685
2055.6268,0.003045
2057.4905,0.003307
2059.3542,0.003109
2061.2178,0.002924
2063.0815,0.003083
2064.9452,0.003595
2066.8088,0.003796
2068.6725,0.003309
2070.5362,0.002560
2072.3998,0.002648
2074.2635,0.002590
2076.1272,0.002696
2077.9908,0.003395
2079.8545,0.003420
2081.7182,0.002933
2083.5819,0.002940
2085.4455,0.002756
2087.3092,0.003347
2089.1729,0.003731
2091.0365,0.003285
2092.9002,0.002562
2094.7639,0.002655
2096.6275,0.002685
2098.4912,0.002534
2100.3549,0.002675
2102.2185,0.002987
2104.0822,0.002938
2105.9459,0.002629
2107.8095,0.002506
2109.6732,0.002941
2111.5369,0.003066
2113.4006,0.002857
2115.2642,0.002457
2117.1279,0.002470
2118.9916,0.002769
2120.8552,0.002939
2122.7189,0.002716
2124.5826,0.002084
2126.4462,0.001855
2128.3099,0.002242
2130.1736,0.001730
2132.0372,0.001355
2133.9009,0.001635
2135.7646,0.002104
2137.6282,0.001762
2139.4919,0.001722
2141.3556,0.001916
2143.2193,0.001786
2145.0829,0.001560
2146.9466,0.001794
2148.8103,0.002348
2150.6739,0.002172
2152.5376,0.001143
2154.4013,0.000780
2156.2649,0.000401
2158.1286,-0.000518
2159.9923,0.000085
2161.8559,0.003028
2163.7196,0.003830
2165.5833,0.003936
2167.4470,0.004214
2169.3106,0.003641
2171.1743,0.002515
2173.0380,0.002371
2174.9016,0.002683
2176.7653,0.002933
2178.6290,0.003046
2180.4926,0.002855
2182.3563,0.002566
2184.2200,0.002733
2186.0836,0.002068
2187.9473,0.002084
2189.8110,0.002586
2191.6746,0.003348
2193.5383,0.003352
2195.4020,0.002928
2197.2657,0.002856
2199.1293,0.003052
2200.9930,0.002885
2202.8567,0.003190
2204.7203,0.003107
2206.5840,0.002953
2208.4477,0.002954
2210.3113,0.003287
2212.1750,0.003088
2214.0387,0.002652
2215.9023,0.002684
2217.7660,0.002811
2219.6297,0.002660
2221.4934,0.003380
2223.3570,0.003177
2225.2207,0.002434
2227.0844,0.002117
2228.9480,0.002787
2230.8117,0.003033
2232.6754,0.002666
2234.5390,0.002611
2236.4027,0.003097
2238.2664,0.002545
2240.1300,0.002246
2241.9937,0.002567
2243.8574,0.003096
2245.7210,0.003147
2247.5847,0.003191
2249.4484,0.003006
2251.3121,0.003073
2253.1757,0.002999
2255.0394,0.002871
2256.9031,0.002821
2258.7667,0.002693
2260.6304,0.002130
2262.4941,0.002394
2264.3577,0.003074
2266.2214,0.003080
2268.0851,0.002776
2269.9487,0.003025
2271.8124,0.003172
2273.6761,0.003138
2275.5397,0.002937
2277.4034,0.003148
2279.2671,0.003362
2281.1308,0.003322
2282.9944,0.003072
2284.8581,0.003178
2286.7218,0.003481
2288.5854,0.003827
2290.4491,0.003719
2292.3128,0.003482
2294.1764,0.003549
2296.0401,0.003926
2297.9038,0.004054
2299.7674,0.004029
2301.6311,0.003999
2303.4948,0.004121
2305.3585,0.004451
2307.2221,0.005222
2309.0858,0.006024
2310.9495,0.006309
2312.8131,0.006279
2314.6768,0.006406
2316.5405,0.006338
2318.4041,0.006723
2320.2678,0.007626
2322.1315,0.008821
2323.9951,0.009434
2325.8588,0.009314
2327.7225,0.008568
2329.5861,0.008662
2331.4498,0.009227
2333.3135,0.009169
2335.1772,0.008776
2337.0408,0.008592
2338.9045,0.008814
2340.7682,0.009303
2342.6318,0.009708
2344.4955,0.010345
2346.3592,0.009122
2348.2228,0.007526
2350.0865,0.006421
2351.9502,0.007462
2353.8138,0.010202
2355.6775,0.010961
2357.5412,0.010248
2359.4049,0.009961
2361.2685,0.010135
2363.1322,0.010595
2364.9959,0.010401
2366.8595,0.009764
2368.7232,0.009746
2370.5869,0.009540
2372.4505,0.008466
2374.3142,0.007870
2376.1779,0.007173
2378.0415,0.006015
2379.9052,0.004578
2381.7689,0.003322
2383.6325,0.002778
2385.4962,0.002537
2387.3599,0.002090
2389.2236,0.002120
2391.0872,0.002057
2392.9509,0.001529
2394.8146,0.001384
2396.6782,0.001715
2398.5419,0.001606
2400.4056,0.001707
2402.2692,0.001790
2404.1329,0.001608
2405.9966,0.001551
2407.8602,0.001716
2409.7239,0.001935
2411.5876,0.002130
2413.4512,0.002122
2415.3149,0.002406
2417.1786,0.002276
2419.0423,0.001853
2420.9059,0.001865
2422.7696,0.001876
2424.6333,0.001394
2426.4969,0.001575
2428.3606,0.001956
2430.2243,0.001849
2432.0879,0.001868
2433.9516,0.001943
2435.8153,0.002052
2437.6789,0.002039
2439.5426,0.001897
2441.4063,0.002032
2443.2700,0.002124
2445.1336,0.002017
2446.9973,0.001919
2448.8610,0.002057
2450.7246,0.002182
2452.5883,0.002285
2454.4520,0.001966
2456.3156,0.001869
2458.1793,0.001719
2460.0430,0.001764
2461.9066,0.001904
2463.7703,0.001761
2465.6340,0.001528
2467.4976,0.001599
2469.3613,0.001664
2471.2250,0.001610
2473.0887,0.001403
2474.9523,0.001170
2476.8160,0.001563
2478.6797,0.001956
2480.5433,0.001586
2482.4070,0.001331
2484.2707,0.001692
2486.1343,0.002239
2487.9980,0.002066
2489.8617,0.001504
2491.7253,0.001377
2493.5890,0.001552
2495.4527,0.001630
2497.3164,0.002059
2499.1800,0.002135
2501.0437,0.001778
2502.9074,0.001660
2504.7710,0.001889
2506.6347,0.001905
2508.4984,0.002122
2510.3620,0.001808
2512.2257,0.001494
2514.0894,0.001759
2515.9530,0.001900
2517.8167,0.001777
2519.6804,0.001694
2521.5440,0.001650
2523.4077,0.001870
2525.2714,0.001919
2527.1351,0.002039
2528.9987,0.001724
2530.8624,0.001288
2532.7261,0.001598
2534.5897,0.001799
2536.4534,0.001503
2538.3171,0.001495
2540.1807,0.001639
2542.0444,0.002061
2543.9081,0.002222
2545.7717,0.002052
2547.6354,0.001915
2549.4991,0.001965
2551.3627,0.002004
2553.2264,0.001858
2555.0901,0.001478
2556.9538,0.001255
2558.8174,0.001306
2560.6811,0.001738
2562.5448,0.001739
2564.4084,0.001780
2566.2721,0.001779
2568.1358,0.001749
2569.9994,0.001668
2571.8631,0.001832
2573.7268,0.001798
2575.5904,0.001754
2577.4541,0.001676
