Wavenumber,Intensity
600.1014,-0.000016
601.9651,-0.004355
603.8287,-0.007838
605.6924,-0.014199
607.5561,-0.006993
609.4197,0.012355
611.2834,0.019329
613.1471,0.010817
615.0107,-0.001527
616.8744,0.001479
618.7381,0.008799
620.6017,0.013893
622.4654,0.011599
624.3291,0.002256
626.1928,0.000130
628.0564,0.002909
629.9201,0.005011
631.7838,0.006849
633.6474,0.003132
635.5111,0.001495
637.3748,0.001830
639.2384,0.005414
641.1021,0.005426
642.9658,0.001017
644.8294,0.000045
646.6931,0.001093
648.5568,0.001473
650.4205,0.000917
652.2841,0.001632
654.1478,0.001392
656.0115,0.002820
657.8751,0.004780
659.7388,0.003490
661.6025,0.000708
663.4661,0.000712
665.3298,0.003010
667.1935,0.009121
669.0571,0.008658
670.9208,0.002772
672.7845,0.001210
674.6481,0.001445
676.5118,0.003097
678.3755,0.003922
680.2392,0.003321
682.1028,0.002545
683.9665,0.002092
685.8302,0.001786
687.6938,0.002162
689.5575,0.002058
691.4212,0.001725
693.2848,0.001169
695.1485,0.001553
697.0122,0.002525
698.8758,0.002047
700.7395,0.000231
702.6032,0.000034
704.4669,0.000674
706.3305,0.000963
708.1942,0.000879
710.0579,0.000690
711.9215,0.000576
713.7852,0.000658
715.6489,0.000819
717.5125,0.000827
719.3762,0.000333
721.2399,0.000503
723.1035,0.000368
724.9672,0.000149
726.8309,0.000250
728.6945,0.000628
730.5582,0.000122
732.4219,-0.000111
734.2856,0.000581
736.1492,0.000757
738.0129,0.000520
739.8766,0.000569
741.7402,0.000591
743.6039,0.001009
745.4676,0.000996
747.3312,0.000987
749.1949,0.000983
751.0586,0.000697
752.9222,0.000445
754.7859,0.000609
756.6496,0.000443
758.5132,0.000234
760.3769,0.000421
762.2406,0.000881
764.1043,0.000608
765.9679,0.000140
767.8316,0.000051
769.6953,0.000179
771.5589,0.000012
773.4226,0.000328
775.2863,0.000375
777.1499,0.000006
779.0136,-0.000255
780.8773,-0.000413
782.7409,-0.000205
784.6046,-0.000028
786.4683,-0.000218
788.3320,-0.000056
790.1956,-0.000026
792.0593,-0.000418
793.9230,-0.000482
795.7866,-0.000334
797.6503,-0.000363
799.5140,-0.000266
801.3776,-0.000119
803.2413,-0.000123
805.1050,-0.000340
806.9686,-0.000235
808.8323,-0.000130
810.6960,-0.000056
812.5596,0.000009
814.4233,-0.000054
816.2870,-0.000161
818.1507,-0.000244
820.0143,-0.000345
821.8780,-0.000285
823.7417,-0.000404
825.6053,-0.000300
827.4690,-0.000249
829.3327,-0.000168
831.1963,-0.000162
833.0600,-0.000242
834.9237,-0.000204
836.7873,-0.000191
838.6510,-0.000216
840.5147,-0.000296
842.3784,-0.000271
844.2420,-0.000162
846.1057,0.000069
847.9694,0.000154
849.8330,0.000037
851.6967,-0.000017
853.5604,-0.000231
855.4240,-0.000290
857.2877,-0.000165
859.1514,-0.000035
861.0150,-0.000171
862.8787,-0.000358
864.7424,-0.000398
866.6060,-0.000308
868.4697,-0.000255
870.3334,-0.000221
872.1971,-0.000323
874.0607,-0.000424
875.9244,-0.000393
877.7881,-0.000412
879.6517,-0.000570
881.5154,-0.000442
883.3791,-0.000345
885.2427,-0.000501
887.1064,-0.000537
888.9701,-0.000371
890.8337,-0.000383
892.6974,-0.000364
894.5611,-0.000278
896.4247,-0.000386
898.2884,-0.000564
900.1521,-0.000467
902.0158,-0.000446
903.8794,-0.000510
905.7431,-0.000597
907.6068,-0.000633
909.4704,-0.000657
911.3341,-0.000539
913.1978,-0.000452
915.0614,-0.000401
916.9251,-0.000487
918.7888,-0.000631
920.6524,-0.000569
922.5161,-0.000456
924.3798,-0.000660
926.2435,-0.000713
928.1071,-0.000558
929.9708,-0.000493
931.8345,-0.000657
933.6981,-0.000810
935.5618,-0.000927
937.4255,-0.000863
939.2891,-0.000691
941.1528,-0.000699
943.0165,-0.000789
944.8801,-0.000831
946.7438,-0.000955
948.6075,-0.001036
950.4711,-0.001138
952.3348,-0.001207
954.1985,-0.001310
956.0622,-0.001502
957.9258,-0.001521
959.7895,-0.001406
961.6532,-0.001501
963.5168,-0.001688
965.3805,-0.001903
967.2442,-0.002048
969.1078,-0.002161
970.9715,-0.002170
972.8352,-0.002204
974.6988,-0.002322
976.5625,-0.002415
978.4262,-0.002426
980.2899,-0.002588
982.1535,-0.002706
984.0172,-0.002813
985.8809,-0.003008
987.7445,-0.003120
989.6082,-0.003124
991.4719,-0.003286
993.3355,-0.003404
995.1992,-0.003360
997.0629,-0.003305
998.9265,-0.003350
1000.7902,-0.003448
1002.6539,-0.003630
1004.5175,-0.003712
1006.3812,-0.003760
1008.2449,-0.003788
1010.1086,-0.003784
1011.9722,-0.003781
1013.8359,-0.003818
1015.6996,-0.003823
1017.5632,-0.003864
1019.4269,-0.003852
1021.2906,-0.003811
1023.1542,-0.003757
1025.0179,-0.003850
1026.8816,-0.003833
1028.7452,-0.003750
1030.6089,-0.003802
1032.4726,-0.003832
1034.3362,-0.003664
1036.1999,-0.003543
1038.0636,-0.003383
1039.9273,-0.003237
1041.7909,-0.003110
1043.6546,-0.003022
1045.5183,-0.002897
1047.3819,-0.002798
1049.2456,-0.002676
1051.1093,-0.002540
1052.9729,-0.002383
1054.8366,-0.002311
1056.7003,-0.002221
1058.5639,-0.002178
1060.4276,-0.002165
1062.2913,-0.002097
1064.1550,-0.001898
1066.0186,-0.001710
1067.8823,-0.001714
1069.7460,-0.001816
1071.6096,-0.001788
1073.4733,-0.001755
1075.3370,-0.001673
1077.2006,-0.001614
1079.0643,-0.001564
1080.9280,-0.001585
1082.7916,-0.001605
1084.6553,-0.001571
1086.5190,-0.001466
1088.3826,-0.001454
1090.2463,-0.001407
1092.1100,-0.001364
1093.9737,-0.001368
1095.8373,-0.001403
1097.7010,-0.001323
1099.5647,-0.001251
1101.4283,-0.001193
1103.2920,-0.001147
1105.1557,-0.001096
1107.0193,-0.000997
1108.8830,-0.000811
1110.7467,-0.000870
1112.6103,-0.000933
1114.4740,-0.000798
1116.3377,-0.000662
1118.2014,-0.000666
1120.0650,-0.000639
1121.9287,-0.000578
1123.7924,-0.000492
1125.6560,-0.000473
1127.5197,-0.000502
1129.3834,-0.000444
1131.2470,-0.000259
1133.1107,-0.000232
1134.9744,-0.000200
1136.8380,-0.000194
1138.7017,-0.000234
1140.5654,-0.000217
1142.4290,-0.000134
1144.2927,-0.000093
1146.1564,-0.000015
1148.0201,0.000012
1149.8837,0.000005
1151.7474,-0.000042
1153.6111,-0.000052
1155.4747,-0.000096
1157.3384,-0.000156
1159.2021,-0.000161
1161.0657,-0.000113
1162.9294,-0.000124
1164.7931,-0.000065
1166.6567,0.000043
1168.5204,0.000199
1170.3841,0.000181
1172.2477,0.000083
1174.1114,0.000050
1175.9751,0.000028
1177.8388,0.000016
1179.7024,0.000048
1181.5661,0.000018
1183.4298,-0.000005
1185.2934,0.000005
1187.1571,0.000081
1189.0208,0.000102
1190.8844,0.000097
1192.7481,0.000035
1194.6118,0.000058
1196.4754,0.000068
1198.3391,0.000056
1200.2028,0.000035
1202.0665,0.000143
1203.9301,0.000147
1205.7938,0.000061
1207.6575,0.000040
1209.5211,0.000111
1211.3848,0.000181
1213.2485,0.000153
1215.1121,0.000044
1216.9758,0.000090
1218.8395,0.000121
1220.7031,0.000165
1222.5668,0.000184
1224.4305,0.000213
1226.2941,0.000204
1228.1578,0.000221
1230.0215,0.000208
1231.8852,0.000193
1233.7488,0.000197
1235.6125,0.000235
1237.4762,0.000144
1239.3398,0.000098
1241.2035,0.000099
1243.0672,0.000201
1244.9308,0.000267
1246.7945,0.000282
1248.6582,0.000221
1250.5218,0.000230
1252.3855,0.000191
1254.2492,0.000177
1256.1129,0.000198
1257.9765,0.000307
1259.8402,0.000386
1261.7039,0.000263
1263.5675,0.000205
1265.4312,0.000336
1267.2949,0.000367
1269.1585,0.000417
1271.0222,0.000574
1272.8859,0.000523
1274.7495,0.000304
1276.6132,0.000186
1278.4769,0.000222
1280.3405,0.000345
1282.2042,0.000341
1284.0679,0.000317
1285.9316,0.000465
1287.7952,0.000599
1289.6589,0.000408
1291.5226,0.000295
1293.3862,0.000201
1295.2499,0.000268
1297.1136,0.000284
1298.9772,0.000224
1300.8409,0.000145
1302.7046,0.000195
1304.5682,0.000203
1306.4319,0.000278
1308.2956,0.000313
1310.1592,0.000337
1312.0229,0.000698
1313.8866,0.000999
1315.7503,0.001104
1317.6139,0.001457
1319.4776,0.001565
1321.3413,0.001012
1323.2049,0.000428
1325.0686,0.000187
1326.9323,0.000202
1328.7959,0.000287
1330.6596,0.000274
1332.5233,0.000130
1334.3869,0.000286
1336.2506,0.001218
1338.1143,0.003309
1339.9780,0.004220
1341.8416,0.002188
1343.7053,0.000480
1345.5690,0.000018
1347.4326,0.000325
1349.2963,0.000348
1351.1600,0.000290
1353.0236,0.000446
1354.8873,0.000785
1356.7510,0.000658
1358.6146,0.000624
1360.4783,0.001438
1362.3420,0.003158
1364.2056,0.002583
1366.0693,0.001049
1367.9330,0.000622
1369.7967,0.000779
1371.6603,0.001378
1373.5240,0.003194
1375.3877,0.002917
1377.2513,0.001756
1379.1150,0.000798
1380.9787,0.000667
1382.8423,0.000133
1384.7060,0.000536
1386.5697,0.002330
1388.4333,0.002460
1390.2970,0.001156
1392.1607,0.000713
1394.0244,0.003828
1395.8880,0.005116
1397.7517,0.005333
1399.6154,0.004070
1401.4790,0.001745
1403.3427,0.001146
1405.2064,0.001485
1407.0700,0.001291
1408.9337,0.000691
1410.7974,0.000865
1412.6610,0.000754
1414.5247,0.000693
1416.3884,0.002651
1418.2520,0.007465
1420.1157,0.006273
1421.9794,0.003618
1423.8431,0.002623
1425.7067,0.001510
1427.5704,0.001242
1429.4341,0.001394
1431.2977,0.001669
1433.1614,0.000923
1435.0251,0.003325
1436.8887,0.005860
1438.7524,0.003789
1440.6161,0.001115
1442.4797,-0.000314
1444.3434,0.000122
1446.2071,0.001568
1448.0707,0.003199
1449.9344,0.002087
1451.7981,0.001523
1453.6618,0.001637
1455.5254,0.007198
1457.3891,0.010722
1459.2528,0.008322
1461.1164,0.002497
1462.9801,0.001786
1464.8438,0.003006
1466.7074,0.002486
1468.5711,0.000391
1470.4348,0.002209
1472.2984,0.007890
1474.1621,0.009855
1476.0258,0.006873
1477.8895,0.002867
1479.7531,0.001718
1481.6168,0.000939
1483.4805,0.000677
1485.3441,0.001314
1487.2078,0.003506
1489.0715,0.007994
1490.9351,0.006745
1492.7988,0.002802
1494.6625,0.002212
1496.5261,0.004288
1498.3898,0.005624
1500.2535,0.003771
1502.1171,0.002068
1503.9808,0.002709
1505.8445,0.009318
1507.7082,0.017141
1509.5718,0.012903
1511.4355,0.006659
1513.2992,0.003662
1515.1628,0.005949
1517.0265,0.008284
1518.8902,0.009606
1520.7538,0.010965
1522.6175,0.010080
1524.4812,0.009907
1526.3448,0.007780
1528.2085,0.005806
1530.0722,0.003552
1531.9359,0.005765
1533.7995,0.006111
1535.6632,0.003930
1537.5269,0.004929
1539.3905,0.010904
1541.2542,0.015845
1543.1179,0.012153
1544.9815,0.009080
1546.8452,0.005269
1548.7089,0.004077
1550.5725,0.003015
1552.4362,0.004167
1554.2999,0.003929
1556.1635,0.006694
1558.0272,0.013077
1559.8909,0.014256
1561.7546,0.007840
1563.6182,0.003867
1565.4819,0.002127
1567.3456,0.003307
1569.2092,0.004296
1571.0729,0.003417
1572.9366,0.002234
1574.8002,0.003069
1576.6639,0.005811
1578.5276,0.004881
1580.3912,0.001864
1582.2549,0.000296
1584.1186,0.000682
1585.9822,0.000391
1587.8459,0.000707
1589.7096,0.000606
1591.5733,0.001099
1593.4369,0.001286
1595.3006,0.001667
1597.1643,0.001002
1599.0279,0.000804
1600.8916,0.000806
1602.7553,0.001257
1604.6189,0.001056
1606.4826,0.001477
1608.3463,0.001704
1610.2099,0.001926
1612.0736,0.000705
1613.9373,0.001036
1615.8010,0.003546
1617.6646,0.004996
1619.5283,0.003397
1621.3920,0.002355
1623.2556,0.004092
1625.1193,0.004635
1626.9830,0.003366
1628.8466,0.002064
1630.7103,0.001423
1632.5740,0.001030
1634.4376,0.005375
1636.3013,0.009347
1638.1650,0.007428
1640.0286,0.002955
1641.8923,0.001177
1643.7560,0.002308
1645.6197,0.006109
1647.4833,0.008281
1649.3470,0.005759
1651.2107,0.005553
1653.0743,0.011081
1654.9380,0.012677
1656.8017,0.006130
1658.6653,0.001186
1660.5290,0.002415
1662.3927,0.004320
1664.2563,0.003824
1666.1200,0.002282
1667.9837,0.003521
1669.8474,0.006915
1671.7110,0.007103
1673.5747,0.005796
1675.4384,0.004957
1677.3020,0.004828
1679.1657,0.004101
1681.0294,0.004064
1682.8930,0.009227
1684.7567,0.009717
1686.6204,0.009174
1688.4840,0.005211
1690.3477,0.003289
1692.2114,0.001895
1694.0750,0.003772
1695.9387,0.005621
1697.8024,0.009150
1699.6661,0.010132
1701.5297,0.009098
1703.3934,0.008106
1705.2571,0.004878
1707.1207,0.005002
1708.9844,0.003574
1710.8481,0.002205
1712.7117,0.002922
1714.5754,0.004882
1716.4391,0.008934
1718.3027,0.010121
1720.1664,0.006682
1722.0301,0.002955
1723.8937,0.001470
1725.7574,0.001600
1727.6211,0.001406
1729.4848,0.002670
1731.3484,0.004362
1733.2121,0.007551
1735.0758,0.007087
1736.9394,0.006089
1738.8031,0.003600
1740.6668,0.004802
1742.5304,0.005051
1744.3941,0.004271
1746.2578,0.004732
1748.1214,0.006411
1749.9851,0.008283
1751.8488,0.006204
1753.7125,0.003546
1755.5761,0.003138
1757.4398,0.003124
1759.3035,0.003684
1761.1671,0.002861
1763.0308,0.003192
1764.8945,0.002384
1766.7581,0.002263
1768.6218,0.003885
1770.4855,0.005815
1772.3491,0.005205
1774.2128,0.006093
1776.0765,0.004021
1777.9401,0.002535
1779.8038,0.002441
1781.6675,0.002198
1783.5312,0.002594
1785.3948,0.002210
1787.2585,0.002044
1789.1222,0.001579
1790.9858,0.003693
1792.8495,0.005440
1794.7132,0.004860
1796.5768,0.002955
1798.4405,0.002593
1800.3042,0.003312
1802.1678,0.003910
1804.0315,0.002833
1805.8952,0.001510
1807.7589,0.001327
1809.6225,0.002060
1811.4862,0.002660
1813.3499,0.002016
1815.2135,0.001049
1817.0772,0.001156
1818.9409,0.001454
1820.8045,0.001023
1822.6682,0.001616
1824.5319,0.002649
1826.3955,0.002746
1828.2592,0.003429
1830.1229,0.003312
1831.9865,0.003421
1833.8502,0.001540
1835.7139,0.001207
1837.5776,0.001733
1839.4412,0.001335
1841.3049,0.001693
1843.1686,0.003148
1845.0322,0.004184
1846.8959,0.004207
1848.7596,0.002112
1850.6232,0.001606
1852.4869,0.001155
1854.3506,0.000766
1856.2142,0.000654
1858.0779,0.000867
1859.9416,0.001114
1861.8052,0.001133
1863.6689,0.001402
1865.5326,0.002038
1867.3963,0.003262
1869.2599,0.003848
1871.1236,0.003253
1872.9873,0.001467
1874.8509,0.000759
1876.7146,0.001030
1878.5783,0.000940
1880.4419,0.000855
1882.3056,0.000916
1884.1693,0.000824
1886.0329,0.001011
1887.8966,0.001722
1889.7603,0.001856
1891.6240,0.002062
1893.4876,0.001702
1895.3513,0.001550
1897.2150,0.001474
1899.0786,0.000720
1900.9423,0.000755
1902.8060,0.000911
1904.6696,0.000887
1906.5333,0.001004
1908.3970,0.001674
1910.2606,0.001648
1912.1243,0.001432
1913.9880,0.001028
1915.8516,0.001301
1917.7153,0.001382
1919.5790,0.002051
1921.4427,0.002211
1923.3063,0.002319
1925.1700,0.002458
1927.0337,0.001130
1928.8973,0.000657
1930.7610,0.000708
1932.6247,0.000841
1934.4883,0.001217
1936.3520,0.001198
1938.2157,0.000682
1940.0793,0.001109
1941.9430,0.002052
1943.8067,0.002116
1945.6704,0.001353
1947.5340,0.000826
1949.3977,0.000853
1951.2614,0.000456
1953.1250,0.000649
1954.9887,0.000452
1956.8524,0.000225
1958.7160,0.000456
1960.5797,0.001075
1962.4434,0.001129
1964.3070,0.001048
1966.1707,0.001241
1968.0344,0.001883
1969.8980,0.001519
1971.7617,0.000936
1973.6254,0.001033
1975.4891,0.001652
1977.3527,0.001229
1979.2164,0.001175
1981.0801,0.001402
1982.9437,0.001107
1984.8074,0.000339
1986.6711,0.000484
1988.5347,0.001129
1990.3984,0.002181
1992.2621,0.002177
1994.1257,0.001743
1995.9894,0.000234
1997.8531,-0.000010
1999.7167,0.000977
2001.5804,0.000921
2003.4441,0.000375
2005.3078,0.000907
2007.1714,0.000543
2009.0351,-0.000631
2010.8988,-0.000244
2012.7624,0.000650
2014.6261,0.000600
2016.4898,0.001252
2018.3534,0.002246
2020.2171,0.001726
2022.0808,0.000717
2023.9444,0.000157
2025.8081,0.000172
2027.6718,0.001903
2029.5355,0.002309
2031.3991,0.000974
2033.2628,-0.000411
2035.1265,-0.000909
2036.9901,-0.000104
2038.8538,0.000880
2040.7175,0.001033
2042.5811,0.001213
2044.4448,0.001465
2046.3085,0.001441
2048.1721,0.000591
2050.0358,0.000454
2051.8995,0.000958
2053.7631,0.000974
2055.6268,0.000630
2057.4905,0.000422
2059.3542,0.000443
2061.2178,0.000791
2063.0815,0.000223
2064.9452,0.000970
2066.8088,0.001487
2068.6725,0.000752
2070.5362,0.000257
2072.3998,0.000200
2074.2635,0.000185
2076.1272,0.000348
2077.9908,0.000165
2079.8545,0.000269
2081.7182,0.000489
2083.5819,0.000523
2085.4455,0.000328
2087.3092,0.000282
2089.1729,-0.000076
2091.0365,0.000054
2092.9002,0.000551
2094.7639,0.000845
2096.6275,0.000495
2098.4912,0.000319
2100.3549,0.000692
2102.2185,0.000820
2104.0822,0.000345
2105.9459,0.000403
2107.8095,0.000438
2109.6732,0.000222
2111.5369,-0.000145
2113.4006,-0.000169
2115.2642,0.000190
2117.1279,0.000724
2118.9916,0.000448
2120.8552,0.000132
2122.7189,0.000272
2124.5826,0.000536
2126.4462,0.000224
2128.3099,0.000060
2130.1736,0.000181
2132.0372,0.000233
2133.9009,-0.000268
2135.7646,0.000009
2137.6282,0.000681
2139.4919,0.000502
2141.3556,-0.000288
2143.2193,-0.000137
2145.0829,0.000697
2146.9466,0.000783
2148.8103,0.000336
2150.6739,0.000411
2152.5376,-0.000567
2154.4013,-0.000402
2156.2649,0.000671
2158.1286,0.000550
2159.9923,0.000095
2161.8559,-0.000097
2163.7196,-0.000560
2165.5833,-0.000101
2167.4470,0.000230
2169.3106,-0.000267
2171.1743,-0.000400
2173.0380,0.000755
2174.9016,0.001097
2176.7653,0.000896
2178.6290,0.000885
2180.4926,0.000632
2182.3563,0.000550
2184.2200,0.000378
2186.0836,-0.000401
2187.9473,-0.000270
2189.8110,0.000016
2191.6746,0.000136
2193.5383,0.000045
2195.4020,0.000098
2197.2657,0.000211
2199.1293,0.000330
2200.9930,-0.000208
2202.8567,0.000269
2204.7203,0.000685
2206.5840,0.000306
2208.4477,0.000504
2210.3113,0.000230
2212.1750,-0.000111
2214.0387,0.000225
2215.9023,-0.000169
2217.7660,0.000326
2219.6297,0.001019
2221.4934,0.000581
2223.3570,0.000123
2225.2207,0.000196
2227.0844,0.000272
2228.9480,0.000471
2230.8117,0.000008
2232.6754,0.000337
2234.5390,0.001115
2236.4027,0.000615
2238.2664,0.000292
2240.1300,0.000556
2241.9937,0.000288
2243.8574,0.000053
2245.7210,0.000309
2247.5847,0.000534
2249.4484,0.000206
2251.3121,0.000587
2253.1757,0.000734
2255.0394,0.000692
2256.9031,0.000586
2258.7667,0.000779
2260.6304,0.000897
2262.4941,0.000461
2264.3577,0.000323
2266.2214,0.000714
2268.0851,0.000623
2269.9487,0.000468
2271.8124,0.000404
2273.6761,0.000331
2275.5397,0.000161
2277.4034,-0.000026
2279.2671,0.000215
2281.1308,0.000972
2282.9944,0.001007
2284.8581,0.001036
2286.7218,0.000819
2288.5854,0.000649
2290.4491,0.000995
2292.3128,0.001498
2294.1764,0.001304
2296.0401,0.000959
2297.9038,0.001279
2299.7674,0.001904
2301.6311,0.002173
2303.4948,0.002365
2305.3585,0.002703
2307.2221,0.003122
2309.0858,0.003628
2310.9495,0.004704
2312.8131,0.005646
2314.6768,0.006024
2316.5405,0.006231
2318.4041,0.006774
2320.2678,0.007583
2322.1315,0.008374
2323.9951,0.007881
2325.8588,0.007283
2327.7225,0.007644
2329.5861,0.008755
2331.4498,0.009064
2333.3135,0.008462
2335.1772,0.008402
2337.0408,0.008597
2338.9045,0.008663
2340.7682,0.008831
2342.6318,0.008733
2344.4955,0.009823
2346.3592,0.009014
2348.2228,0.007822
2350.0865,0.006488
2351.9502,0.006522
2353.8138,0.010325
2355.6775,0.012890
2357.5412,0.011626
2359.4049,0.009540
2361.2685,0.009204
2363.1322,0.009242
2364.9959,0.009325
2366.8595,0.010475
2368.7232,0.011460
2370.5869,0.009986
2372.4505,0.008726
2374.3142,0.008132
2376.1779,0.006742
2378.0415,0.005125
2379.9052,0.003428
2381.7689,0.002096
2383.6325,0.001289
2385.4962,0.000654
2387.3599,0.000211
2389.2236,0.000105
2391.0872,-0.000142
2392.9509,-0.000248
2394.8146,-0.000384
2396.6782,-0.000440
2398.5419,-0.000397
2400.4056,-0.000269
2402.2692,-0.000182
2404.1329,-0.000140
2405.9966,-0.000279
2407.8602,-0.000328
2409.7239,-0.000372
2411.5876,-0.000384
2413.4512,-0.000246
2415.3149,-0.000464
2417.1786,-0.000728
2419.0423,-0.000681
2420.9059,-0.000692
2422.7696,-0.000622
2424.6333,-0.000195
2426.4969,-0.000172
2428.3606,-0.000601
2430.2243,-0.000579
2432.0879,-0.000223
2433.9516,-0.000230
2435.8153,-0.000476
2437.6789,-0.000594
2439.5426,-0.000822
2441.4063,-0.000858
2443.2700,-0.000778
2445.1336,-0.000737
2446.9973,-0.000399
2448.8610,-0.000121
2450.7246,-0.000416
2452.5883,-0.000779
2454.4520,-0.000958
2456.3156,-0.000922
2458.1793,-0.000603
2460.0430,-0.000489
2461.9066,-0.000453
2463.7703,-0.000388
2465.6340,-0.000329
2467.4976,-0.000391
2469.3613,-0.000665
2471.2250,-0.001005
2473.0887,-0.001059
2474.9523,-0.000750
2476.8160,-0.000645
2478.6797,-0.000783
2480.5433,-0.000807
2482.4070,-0.000609
2484.2707,-0.000770
2486.1343,-0.000738
2487.9980,-0.000497
2489.8617,-0.000334
2491.7253,-0.000497
2493.5890,-0.000729
2495.4527,-0.000430
2497.3164,-0.000145
2499.1800,-0.000234
2501.0437,-0.000464
2502.9074,-0.000518
2504.7710,-0.000359
2506.6347,-0.000263
2508.4984,-0.000429
2510.3620,-0.000590
2512.2257,-0.000431
2514.0894,-0.000526
2515.9530,-0.000942
2517.8167,-0.001001
2519.6804,-0.000466
2521.5440,-0.000062
2523.4077,-0.000047
2525.2714,-0.000384
2527.1351,-0.000719
2528.9987,-0.000637
2530.8624,-0.000605
2532.7261,-0.000987
2534.5897,-0.001160
2536.4534,-0.001109
2538.3171,-0.000512
2540.1807,-0.000279
2542.0444,-0.000795
2543.9081,-0.000764
2545.7717,-0.000250
