Wavenumber,Intensity
650.4205,0.109787
652.2841,0.110104
654.1478,0.109115
656.0115,0.107437
657.8751,0.106096
659.7388,0.107484
661.6025,0.108573
663.4661,0.109051
665.3298,0.109733
667.1935,0.109983
669.0571,0.109891
670.9208,0.109217
672.7845,0.108691
674.6481,0.107876
676.5118,0.106130
678.3755,0.103185
680.2392,0.100932
682.1028,0.100547
683.9665,0.099804
685.8302,0.097901
687.6938,0.096150
689.5575,0.094789
691.4212,0.092919
693.2848,0.090945
695.1485,0.089611
697.0122,0.089018
698.8758,0.088914
700.7395,0.088338
702.6032,0.088019
704.4669,0.088796
706.3305,0.089682
708.1942,0.090535
710.0579,0.091806
711.9215,0.093648
713.7852,0.094934
715.6489,0.094615
717.5125,0.094352
719.3762,0.094727
721.2399,0.095076
723.1035,0.095239
724.9672,0.095540
726.8309,0.095568
728.6945,0.095517
730.5582,0.095346
732.4219,0.094987
734.2856,0.094640
736.1492,0.094293
738.0129,0.094268
739.8766,0.094528
741.7402,0.094816
743.6039,0.095080
745.4676,0.094919
747.3312,0.094431
749.1949,0.094515
751.0586,0.094867
752.9222,0.094949
754.7859,0.094809
756.6496,0.094746
758.5132,0.094870
760.3769,0.094653
762.2406,0.094372
764.1043,0.093905
765.9679,0.093195
767.8316,0.092550
769.6953,0.092021
771.5589,0.091390
773.4226,0.090923
775.2863,0.090752
777.1499,0.090275
779.0136,0.090027
780.8773,0.090047
782.7409,0.090236
784.6046,0.090730
786.4683,0.091032
788.3320,0.091118
790.1956,0.091056
792.0593,0.090843
793.9230,0.090972
795.7866,0.091239
797.6503,0.091448
799.5140,0.091859
801.3776,0.092381
803.2413,0.092965
805.1050,0.093382
806.9686,0.093694
808.8323,0.094563
810.6960,0.095487
812.5596,0.095918
814.4233,0.096625
816.2870,0.097376
818.1507,0.097580
820.0143,0.097792
821.8780,0.098008
823.7417,0.097980
825.6053,0.097984
827.4690,0.098414
829.3327,0.099013
831.1963,0.099711
833.0600,0.100728
834.9237,0.102147
836.7873,0.103820
838.6510,0.105325
840.5147,0.106914
842.3784,0.109027
844.2420,0.111165
846.1057,0.113215
847.9694,0.115165
849.8330,0.116896
851.6967,0.118718
853.5604,0.120725
855.4240,0.122647
857.2877,0.124692
859.1514,0.126979
861.0150,0.129327
862.8787,0.131538
864.7424,0.133901
866.6060,0.136419
868.4697,0.138840
870.3334,0.141284
872.1971,0.143317
874.0607,0.144402
875.9244,0.144908
877.7881,0.145150
879.6517,0.145081
881.5154,0.145170
883.3791,0.145609
885.2427,0.145931
887.1064,0.146650
888.9701,0.148498
890.8337,0.151075
892.6974,0.153601
894.5611,0.156009
896.4247,0.158615
898.2884,0.161403
900.1521,0.164208
902.0158,0.166636
903.8794,0.168845
905.7431,0.171415
907.6068,0.174027
909.4704,0.176308
911.3341,0.178421
913.1978,0.180355
915.0614,0.182204
916.9251,0.184139
918.7888,0.186022
920.6524,0.187830
922.5161,0.189471
924.3798,0.190944
926.2435,0.192685
928.1071,0.194484
929.9708,0.196148
931.8345,0.197974
933.6981,0.200112
935.5618,0.202503
937.4255,0.205057
939.2891,0.207576
941.1528,0.209877
943.0165,0.212039
944.8801,0.214004
946.7438,0.215608
948.6075,0.217011
950.4711,0.218164
952.3348,0.218919
954.1985,0.219254
956.0622,0.219110
957.9258,0.218596
959.7895,0.217863
961.6532,0.216888
963.5168,0.215930
965.3805,0.215121
967.2442,0.214282
969.1078,0.213413
970.9715,0.212672
972.8352,0.212131
974.6988,0.211685
976.5625,0.211309
978.4262,0.211006
980.2899,0.210583
982.1535,0.210014
984.0172,0.209411
985.8809,0.208590
987.7445,0.207352
989.6082,0.205865
991.4719,0.204211
993.3355,0.202171
995.1992,0.199617
997.0629,0.196968
998.9265,0.194317
1000.7902,0.191392
1002.6539,0.188454
1004.5175,0.185505
1006.3812,0.182282
1008.2449,0.178951
1010.1086,0.175585
1011.9722,0.172004
1013.8359,0.168294
1015.6996,0.164726
1017.5632,0.161144
1019.4269,0.157330
1021.2906,0.153497
1023.1542,0.149841
1025.0179,0.146325
1026.8816,0.142902
1028.7452,0.139508
1030.6089,0.136221
1032.4726,0.132999
1034.3362,0.129839
1036.1999,0.126832
1038.0636,0.123824
1039.9273,0.120900
1041.7909,0.118211
1043.6546,0.115546
1045.5183,0.112967
1047.3819,0.110614
1049.2456,0.108411
1051.1093,0.106245
1052.9729,0.104212
1054.8366,0.102418
1056.7003,0.100652
1058.5639,0.098872
1060.4276,0.097258
1062.2913,0.095807
1064.1550,0.094359
1066.0186,0.092800
1067.8823,0.091281
1069.7460,0.089821
1071.6096,0.088260
1073.4733,0.086577
1075.3370,0.084916
1077.2006,0.083341
1079.0643,0.081667
1080.9280,0.079988
1082.7916,0.078276
1084.6553,0.076431
1086.5190,0.074663
1088.3826,0.072965
1090.2463,0.071235
1092.1100,0.069480
1093.9737,0.067688
1095.8373,0.065866
1097.7010,0.063997
1099.5647,0.062234
1101.4283,0.060624
1103.2920,0.058920
1105.1557,0.057287
1107.0193,0.055740
1108.8830,0.054132
1110.7467,0.052607
1112.6103,0.051157
1114.4740,0.049667
1116.3377,0.048098
1118.2014,0.046699
1120.0650,0.045528
1121.9287,0.044357
1123.7924,0.043163
1125.6560,0.042074
1127.5197,0.041131
1129.3834,0.040205
1131.2470,0.039299
1133.1107,0.038511
1134.9744,0.037776
1136.8380,0.037002
1138.7017,0.036368
1140.5654,0.035828
1142.4290,0.035153
1144.2927,0.034530
1146.1564,0.034023
1148.0201,0.033526
1149.8837,0.033068
1151.7474,0.032571
1153.6111,0.032027
1155.4747,0.031413
1157.3384,0.030765
1159.2021,0.030158
1161.0657,0.029601
1162.9294,0.029016
1164.7931,0.028267
1166.6567,0.027505
1168.5204,0.026853
1170.3841,0.026076
1172.2477,0.025229
1174.1114,0.024491
1175.9751,0.023794
1177.8388,0.023108
1179.7024,0.022412
1181.5661,0.021754
1183.4298,0.021119
1185.2934,0.020404
1187.1571,0.019610
1189.0208,0.018877
1190.8844,0.018285
1192.7481,0.017660
1194.6118,0.017025
1196.4754,0.016568
1198.3391,0.016058
1200.2028,0.015505
1202.0665,0.015051
1203.9301,0.014558
1205.7938,0.014082
1207.6575,0.013677
1209.5211,0.013306
1211.3848,0.012972
1213.2485,0.012651
1215.1121,0.012452
1216.9758,0.012281
1218.8395,0.011985
1220.7031,0.011782
1222.5668,0.011644
1224.4305,0.011468
1226.2941,0.011330
1228.1578,0.011172
1230.0215,0.011035
1231.8852,0.010966
1233.7488,0.010888
1235.6125,0.010806
1237.4762,0.010739
1239.3398,0.010693
1241.2035,0.010645
1243.0672,0.010594
1244.9308,0.010523
1246.7945,0.010428
1248.6582,0.010383
1250.5218,0.010395
1252.3855,0.010384
1254.2492,0.010351
1256.1129,0.010299
1257.9765,0.010303
1259.8402,0.010301
1261.7039,0.010194
1263.5675,0.010211
1265.4312,0.010260
1267.2949,0.010253
1269.1585,0.010234
1271.0222,0.010204
1272.8859,0.010265
1274.7495,0.010329
1276.6132,0.010388
1278.4769,0.010409
1280.3405,0.010459
1282.2042,0.010594
1284.0679,0.010641
1285.9316,0.010619
1287.7952,0.010689
1289.6589,0.010794
1291.5226,0.010793
1293.3862,0.010918
1295.2499,0.011050
1297.1136,0.011074
1298.9772,0.011194
1300.8409,0.011328
1302.7046,0.011429
1304.5682,0.011493
1306.4319,0.011518
1308.2956,0.011581
1310.1592,0.011657
1312.0229,0.011745
1313.8866,0.011890
1315.7503,0.012024
1317.6139,0.012151
1319.4776,0.012251
1321.3413,0.012336
1323.2049,0.012383
1325.0686,0.012491
1326.9323,0.012667
1328.7959,0.012813
1330.6596,0.012895
1332.5233,0.012980
1334.3869,0.013102
1336.2506,0.013157
1338.1143,0.013248
1339.9780,0.013567
1341.8416,0.013899
1343.7053,0.014011
1345.5690,0.014065
1347.4326,0.014185
1349.2963,0.014350
1351.1600,0.014501
1353.0236,0.014696
1354.8873,0.014944
1356.7510,0.015160
1358.6146,0.015270
1360.4783,0.015345
1362.3420,0.015560
1364.2056,0.015971
1366.0693,0.016274
1367.9330,0.016523
1369.7967,0.016762
1371.6603,0.016818
1373.5240,0.017044
1375.3877,0.017424
1377.2513,0.017644
1379.1150,0.017914
1380.9787,0.018310
1382.8423,0.018498
1384.7060,0.018384
1386.5697,0.018505
1388.4333,0.019318
1390.2970,0.019710
1392.1607,0.019480
1394.0244,0.019572
1395.8880,0.020050
1397.7517,0.020232
1399.6154,0.020664
1401.4790,0.020922
1403.3427,0.020865
1405.2064,0.021142
1407.0700,0.021419
1408.9337,0.021532
1410.7974,0.021623
1412.6610,0.021853
1414.5247,0.021947
1416.3884,0.021549
1418.2520,0.021341
1420.1157,0.021923
1421.9794,0.021906
1423.8431,0.021751
1425.7067,0.021818
1427.5704,0.021488
1429.4341,0.021390
1431.2977,0.021527
1433.1614,0.021237
1435.0251,0.020649
1436.8887,0.020807
1438.7524,0.021148
1440.6161,0.020813
1442.4797,0.020788
1444.3434,0.020686
1446.2071,0.020408
1448.0707,0.020416
1449.9344,0.020511
1451.7981,0.020394
1453.6618,0.019849
1455.5254,0.018931
1457.3891,0.018941
1459.2528,0.019447
1461.1164,0.019238
1462.9801,0.018909
1464.8438,0.018870
1466.7074,0.018825
1468.5711,0.018357
1470.4348,0.017704
1472.2984,0.017213
1474.1621,0.017534
1476.0258,0.017521
1477.8895,0.017345
1479.7531,0.017115
1481.6168,0.016895
1483.4805,0.016842
1485.3441,0.016616
1487.2078,0.016206
1489.0715,0.015934
1490.9351,0.016003
1492.7988,0.015885
1494.6625,0.015424
1496.5261,0.015147
1498.3898,0.015185
1500.2535,0.015177
1502.1171,0.014992
1503.9808,0.014490
1505.8445,0.013832
1507.7082,0.013888
1509.5718,0.014074
1511.4355,0.014088
1513.2992,0.014039
1515.1628,0.013529
1517.0265,0.013155
1518.8902,0.013158
1520.7538,0.013000
1522.6175,0.012932
1524.4812,0.012754
1526.3448,0.012662
1528.2085,0.012873
1530.0722,0.012752
1531.9359,0.012416
1533.7995,0.012397
1535.6632,0.012288
1537.5269,0.011702
1539.3905,0.011107
1541.2542,0.011069
1543.1179,0.011079
1544.9815,0.011065
1546.8452,0.011241
1548.7089,0.011199
1550.5725,0.011080
1552.4362,0.011152
1554.2999,0.011100
1556.1635,0.010907
1558.0272,0.010238
1559.8909,0.010028
1561.7546,0.010451
1563.6182,0.010572
1565.4819,0.010601
1567.3456,0.010630
1569.2092,0.010595
1571.0729,0.010715
1572.9366,0.010788
1574.8002,0.010597
1576.6639,0.010528
1578.5276,0.010939
1580.3912,0.011052
1582.2549,0.011128
1584.1186,0.011281
1585.9822,0.011339
1587.8459,0.011517
1589.7096,0.011631
1591.5733,0.011634
1593.4369,0.011757
1595.3006,0.011845
1597.1643,0.011881
1599.0279,0.012091
1600.8916,0.012253
1602.7553,0.012403
1604.6189,0.012692
1606.4826,0.013045
1608.3463,0.013070
1610.2099,0.013057
1612.0736,0.013333
1613.9373,0.013632
1615.8010,0.013673
1617.6646,0.013976
1619.5283,0.014483
1621.3920,0.014602
1623.2556,0.014577
1625.1193,0.014924
1626.9830,0.015132
1628.8466,0.015375
1630.7103,0.015778
1632.5740,0.015879
1634.4376,0.015522
1636.3013,0.015387
1638.1650,0.015854
1640.0286,0.016044
1641.8923,0.016010
1643.7560,0.015800
1645.6197,0.015636
1647.4833,0.015890
1649.3470,0.015648
1651.2107,0.014950
1653.0743,0.014362
1654.9380,0.014828
1656.8017,0.015033
1658.6653,0.014969
1660.5290,0.014863
1662.3927,0.014602
1664.2563,0.014511
1666.1200,0.014376
1667.9837,0.014044
1669.8474,0.013510
1671.7110,0.013423
1673.5747,0.013385
1675.4384,0.012957
1677.3020,0.012751
1679.1657,0.012758
1681.0294,0.012609
1682.8930,0.012049
1684.7567,0.011094
1686.6204,0.011026
1688.4840,0.011044
1690.3477,0.010949
1692.2114,0.010862
1694.0750,0.010646
1695.9387,0.010034
1697.8024,0.009891
1699.6661,0.009415
1701.5297,0.009017
1703.3934,0.009191
1705.2571,0.008959
1707.1207,0.008823
1708.9844,0.008839
1710.8481,0.008927
1712.7117,0.008953
1714.5754,0.008703
1716.4391,0.008206
1718.3027,0.007590
1720.1664,0.007750
1722.0301,0.008154
1723.8937,0.008320
1725.7574,0.008302
1727.6211,0.008206
1729.4848,0.008177
1731.3484,0.008287
1733.2121,0.007976
1735.0758,0.007431
1736.9394,0.007675
1738.8031,0.007673
1740.6668,0.007606
1742.5304,0.007567
1744.3941,0.007744
1746.2578,0.007875
1748.1214,0.007705
1749.9851,0.007462
1751.8488,0.007385
1753.7125,0.007576
1755.5761,0.007729
1757.4398,0.007770
1759.3035,0.007798
1761.1671,0.007598
1763.0308,0.007542
1764.8945,0.007849
1766.7581,0.007861
1768.6218,0.007730
1770.4855,0.007814
1772.3491,0.007281
1774.2128,0.007002
1776.0765,0.007491
1777.9401,0.007943
1779.8038,0.007826
1781.6675,0.007738
1783.5312,0.007775
1785.3948,0.007825
1787.2585,0.008063
1789.1222,0.008284
1790.9858,0.008237
1792.8495,0.008057
1794.7132,0.008080
1796.5768,0.008072
1798.4405,0.008075
1800.3042,0.008021
1802.1678,0.008038
1804.0315,0.008203
1805.8952,0.008213
1807.7589,0.008096
1809.6225,0.007941
1811.4862,0.007981
1813.3499,0.007950
1815.2135,0.007775
1817.0772,0.007763
1818.9409,0.007893
1820.8045,0.008096
1822.6682,0.008319
1824.5319,0.008061
1826.3955,0.007636
1828.2592,0.007735
1830.1229,0.007606
1831.9865,0.007565
1833.8502,0.007913
1835.7139,0.008208
1837.5776,0.008242
1839.4412,0.008218
1841.3049,0.008175
1843.1686,0.008041
1845.0322,0.007720
1846.8959,0.007926
1848.7596,0.008104
1850.6232,0.007992
1852.4869,0.008178
1854.3506,0.008320
1856.2142,0.008201
1858.0779,0.008103
1859.9416,0.008171
1861.8052,0.008263
1863.6689,0.008203
1865.5326,0.008215
1867.3963,0.008439
1869.2599,0.008252
1871.1236,0.007979
1872.9873,0.008329
1874.8509,0.008589
1876.7146,0.008257
1878.5783,0.008003
1880.4419,0.008305
1882.3056,0.008537
1884.1693,0.008513
1886.0329,0.008305
1887.8966,0.008124
1889.7603,0.008179
1891.6240,0.008258
1893.4876,0.008326
1895.3513,0.008640
1897.2150,0.008825
1899.0786,0.008544
1900.9423,0.008132
1902.8060,0.008276
1904.6696,0.008468
1906.5333,0.008664
1908.3970,0.008940
1910.2606,0.008803
1912.1243,0.008331
1913.9880,0.008404
1915.8516,0.008506
1917.7153,0.008273
1919.5790,0.008396
1921.4427,0.008350
1923.3063,0.008390
1925.1700,0.008527
1927.0337,0.008442
1928.8973,0.008352
1930.7610,0.008762
1932.6247,0.008961
1934.4883,0.008734
1936.3520,0.008417
1938.2157,0.008460
1940.0793,0.008523
1941.9430,0.008353
1943.8067,0.008050
1945.6704,0.007722
1947.5340,0.008001
1949.3977,0.008310
1951.2614,0.008001
1953.1250,0.008245
1954.9887,0.008962
1956.8524,0.008884
1958.7160,0.008459
1960.5797,0.008481
1962.4434,0.008174
1964.3070,0.007954
1966.1707,0.008382
1968.0344,0.009145
1969.8980,0.009519
1971.7617,0.009237
1973.6254,0.008968
1975.4891,0.008918
1977.3527,0.008597
1979.2164,0.008137
1981.0801,0.007892
1982.9437,0.008829
1984.8074,0.009554
1986.6711,0.008983
1988.5347,0.008532
1990.3984,0.008605
1992.2621,0.009108
1994.1257,0.009382
1995.9894,0.008854
1997.8531,0.008468
1999.7167,0.008214
2001.5804,0.008604
2003.4441,0.009306
2005.3078,0.009649
2007.1714,0.009615
2009.0351,0.008990
2010.8988,0.009248
2012.7624,0.009453
2014.6261,0.008731
2016.4898,0.008322
2018.3534,0.008656
2020.2171,0.008859
2022.0808,0.008325
2023.9444,0.008026
2025.8081,0.008117
2027.6718,0.008305
2029.5355,0.008260
2031.3991,0.008256
2033.2628,0.008666
2035.1265,0.009560
2036.9901,0.009773
2038.8538,0.009718
2040.7175,0.009415
2042.5811,0.009156
2044.4448,0.009258
2046.3085,0.009463
2048.1721,0.009247
2050.0358,0.009163
2051.8995,0.009359
2053.7631,0.009211
2055.6268,0.008942
2057.4905,0.009443
2059.3542,0.009966
2061.2178,0.009481
2063.0815,0.009090
2064.9452,0.009080
2066.8088,0.009081
2068.6725,0.009370
2070.5362,0.009674
2072.3998,0.009980
2074.2635,0.009552
2076.1272,0.009699
2077.9908,0.010071
2079.8545,0.009588
2081.7182,0.009362
2083.5819,0.009537
2085.4455,0.009532
2087.3092,0.009702
2089.1729,0.009525
2091.0365,0.009627
2092.9002,0.009290
2094.7639,0.009169
2096.6275,0.009676
2098.4912,0.009375
2100.3549,0.009565
2102.2185,0.010040
2104.0822,0.009745
2105.9459,0.009546
2107.8095,0.009777
2109.6732,0.009499
2111.5369,0.009552
2113.4006,0.009673
2115.2642,0.009403
2117.1279,0.009617
2118.9916,0.010012
2120.8552,0.009701
2122.7189,0.009320
2124.5826,0.009287
2126.4462,0.009305
2128.3099,0.009129
2130.1736,0.008937
2132.0372,0.008674
2133.9009,0.008811
2135.7646,0.009186
2137.6282,0.009237
2139.4919,0.009393
2141.3556,0.008925
2143.2193,0.008697
2145.0829,0.009436
2146.9466,0.008969
2148.8103,0.007938
2150.6739,0.008400
2152.5376,0.008763
2154.4013,0.008397
2156.2649,0.007830
2158.1286,0.007635
2159.9923,0.009215
2161.8559,0.010167
2163.7196,0.010302
2165.5833,0.010843
2167.4470,0.011381
2169.3106,0.010821
2171.1743,0.010121
2173.0380,0.010308
2174.9016,0.010286
2176.7653,0.009419
2178.6290,0.009126
2180.4926,0.009015
2182.3563,0.008685
2184.2200,0.009365
2186.0836,0.010269
2187.9473,0.010303
2189.8110,0.009692
2191.6746,0.009485
2193.5383,0.009682
2195.4020,0.009457
2197.2657,0.009410
2199.1293,0.009769
2200.9930,0.010034
2202.8567,0.009794
2204.7203,0.009697
2206.5840,0.009599
2208.4477,0.009393
2210.3113,0.010332
2212.1750,0.010196
2214.0387,0.009542
2215.9023,0.009716
2217.7660,0.010203
2219.6297,0.010267
2221.4934,0.009955
2223.3570,0.010149
2225.2207,0.010076
2227.0844,0.010290
2228.9480,0.010659
2230.8117,0.010146
2232.6754,0.009565
2234.5390,0.010321
2236.4027,0.010754
2238.2664,0.010542
2240.1300,0.010052
2241.9937,0.010150
2243.8574,0.010381
2245.7210,0.010426
2247.5847,0.010078
2249.4484,0.009769
2251.3121,0.010040
2253.1757,0.010450
2255.0394,0.010658
2256.9031,0.010373
2258.7667,0.010173
2260.6304,0.009773
2262.4941,0.009424
2264.3577,0.009420
2266.2214,0.010472
2268.0851,0.011040
2269.9487,0.010719
2271.8124,0.010740
2273.6761,0.010824
2275.5397,0.010453
2277.4034,0.010181
2279.2671,0.010438
2281.1308,0.010445
2282.9944,0.010081
2284.8581,0.010190
2286.7218,0.010828
2288.5854,0.010910
2290.4491,0.010598
2292.3128,0.010643
2294.1764,0.010932
2296.0401,0.011222
2297.9038,0.011027
2299.7674,0.010544
2301.6311,0.010438
2303.4948,0.010645
2305.3585,0.011002
2307.2221,0.011246
2309.0858,0.010971
2310.9495,0.011095
2312.8131,0.011647
2314.6768,0.011903
2316.5405,0.011763
2318.4041,0.011407
2320.2678,0.011669
2322.1315,0.012236
2323.9951,0.012133
2325.8588,0.011731
2327.7225,0.011745
2329.5861,0.011758
2331.4498,0.011743
2333.3135,0.011598
2335.1772,0.011846
2337.0408,0.012085
2338.9045,0.012133
2340.7682,0.012298
2342.6318,0.012177
2344.4955,0.011493
2346.3592,0.010922
2348.2228,0.010974
2350.0865,0.011317
2351.9502,0.011923
2353.8138,0.012196
2355.6775,0.012159
2357.5412,0.012456
2359.4049,0.012572
2361.2685,0.012356
2363.1322,0.011968
2364.9959,0.011665
2366.8595,0.011451
2368.7232,0.011435
2370.5869,0.011374
2372.4505,0.011400
2374.3142,0.011627
2376.1779,0.011402
2378.0415,0.010964
2379.9052,0.010599
2381.7689,0.010339
2383.6325,0.010265
2385.4962,0.010134
2387.3599,0.009972
2389.2236,0.010019
2391.0872,0.009919
2392.9509,0.010088
2394.8146,0.010292
2396.6782,0.010391
2398.5419,0.010405
2400.4056,0.010467
2402.2692,0.010719
2404.1329,0.010784
2405.9966,0.010438
2407.8602,0.010074
2409.7239,0.010029
2411.5876,0.010351
2413.4512,0.010192
2415.3149,0.010276
2417.1786,0.010274
2419.0423,0.010251
2420.9059,0.010614
2422.7696,0.010777
2424.6333,0.010668
2426.4969,0.010600
2428.3606,0.010304
2430.2243,0.010368
2432.0879,0.010629
2433.9516,0.010527
2435.8153,0.010317
2437.6789,0.010259
2439.5426,0.010443
2441.4063,0.010852
2443.2700,0.010693
2445.1336,0.010497
2446.9973,0.010587
2448.8610,0.010198
2450.7246,0.010203
2452.5883,0.010643
2454.4520,0.010757
2456.3156,0.010740
2458.1793,0.010848
2460.0430,0.010623
2461.9066,0.010063
2463.7703,0.010144
2465.6340,0.010619
2467.4976,0.010851
2469.3613,0.011052
2471.2250,0.010805
2473.0887,0.010373
2474.9523,0.010895
2476.8160,0.011189
2478.6797,0.010930
2480.5433,0.010787
2482.4070,0.010462
2484.2707,0.010258
2486.1343,0.010668
2487.9980,0.010687
2489.8617,0.010575
2491.7253,0.010858
2493.5890,0.010808
2495.4527,0.010600
2497.3164,0.010538
2499.1800,0.011042
2501.0437,0.011541
2502.9074,0.011327
2504.7710,0.011098
2506.6347,0.011100
2508.4984,0.011173
2510.3620,0.010966
2512.2257,0.011110
2514.0894,0.011287
2515.9530,0.011111
2517.8167,0.010646
2519.6804,0.010566
2521.5440,0.010980
2523.4077,0.010777
2525.2714,0.010774
2527.1351,0.011094
2528.9987,0.010695
2530.8624,0.010641
2532.7261,0.010856
2534.5897,0.010792
2536.4534,0.010476
2538.3171,0.010646
2540.1807,0.010718
2542.0444,0.010795
2543.9081,0.010768
2545.7717,0.010696
2547.6354,0.010614
2549.4991,0.010740
2551.3627,0.010567
2553.2264,0.010144
2555.0901,0.010284
2556.9538,0.010594
2558.8174,0.010880
2560.6811,0.011191
2562.5448,0.011155
2564.4084,0.011038
2566.2721,0.011033
2568.1358,0.010840
2569.9994,0.011037
2571.8631,0.011236
2573.7268,0.010866
2575.5904,0.010381
2577.4541,0.010508
2579.3178,0.010981
2581.1815,0.011221
2583.0451,0.011055
2584.9088,0.011040
2586.7725,0.010905
2588.6361,0.010907
2590.4998,0.010967
2592.3635,0.010731
2594.2271,0.010186
2596.0908,0.010121
2597.9545,0.010544
2599.8181,0.010724
2601.6818,0.010807
2603.5455,0.010963
2605.4091,0.011050
2607.2728,0.010746
2609.1365,0.010563
2611.0002,0.010984
2612.8638,0.011219
2614.7275,0.010926
2616.5912,0.010651
2618.4548,0.010710
2620.3185,0.010919
2622.1822,0.011183
2624.0458,0.011002
2625.9095,0.010654
