Wavenumber,Intensity
600.1014,0.199961
601.9651,0.195334
603.8287,0.188983
605.6924,0.193109
607.5561,0.185535
609.4197,0.177535
611.2834,0.170975
613.1471,0.174343
615.0107,0.184108
616.8744,0.180375
618.7381,0.169899
620.6017,0.180024
622.4654,0.189427
624.3291,0.187147
626.1928,0.180774
628.0564,0.179581
629.9201,0.180238
631.7838,0.179495
633.6474,0.179161
635.5111,0.180462
637.3748,0.181323
639.2384,0.183684
641.1021,0.185537
642.9658,0.185753
644.8294,0.187603
646.6931,0.187729
648.5568,0.186892
650.4205,0.184338
652.2841,0.181235
654.1478,0.180145
656.0115,0.178638
657.8751,0.177458
659.7388,0.175255
661.6025,0.177119
663.4661,0.179366
665.3298,0.180100
667.1935,0.179324
669.0571,0.176939
670.9208,0.176906
672.7845,0.176053
674.6481,0.174958
676.5118,0.174035
678.3755,0.172356
680.2392,0.170497
682.1028,0.168964
683.9665,0.166410
685.8302,0.162832
687.6938,0.159371
689.5575,0.155653
691.4212,0.152046
693.2848,0.149916
695.1485,0.148544
697.0122,0.147457
698.8758,0.145724
700.7395,0.144403
702.6032,0.143720
704.4669,0.144330
706.3305,0.146020
708.1942,0.147662
710.0579,0.150338
711.9215,0.152664
713.7852,0.153291
715.6489,0.153572
717.5125,0.154841
719.3762,0.156606
721.2399,0.157947
723.1035,0.158429
724.9672,0.157940
726.8309,0.157688
728.6945,0.157463
730.5582,0.156327
732.4219,0.155317
734.2856,0.154668
736.1492,0.153968
738.0129,0.153784
739.8766,0.153412
741.7402,0.152910
743.6039,0.153014
745.4676,0.152509
747.3312,0.151755
749.1949,0.151419
751.0586,0.151330
752.9222,0.150689
754.7859,0.150614
756.6496,0.151046
758.5132,0.151286
760.3769,0.150764
762.2406,0.149665
764.1043,0.148134
765.9679,0.146715
767.8316,0.145468
769.6953,0.144349
771.5589,0.143140
773.4226,0.142211
775.2863,0.141518
777.1499,0.140889
779.0136,0.139792
780.8773,0.138960
782.7409,0.139249
784.6046,0.139611
786.4683,0.140467
788.3320,0.140897
790.1956,0.140430
792.0593,0.139914
793.9230,0.140056
795.7866,0.140073
797.6503,0.140262
799.5140,0.140922
801.3776,0.141693
803.2413,0.142466
805.1050,0.143559
806.9686,0.145017
808.8323,0.146045
810.6960,0.147172
812.5596,0.148647
814.4233,0.150062
816.2870,0.151225
818.1507,0.151938
820.0143,0.151989
821.8780,0.152021
823.7417,0.152112
825.6053,0.152240
827.4690,0.152466
829.3327,0.153144
831.1963,0.154467
833.0600,0.156756
834.9237,0.159726
836.7873,0.162767
838.6510,0.165709
840.5147,0.169279
842.3784,0.173126
844.2420,0.177325
846.1057,0.181861
847.9694,0.186418
849.8330,0.190869
851.6967,0.195283
853.5604,0.199876
855.4240,0.204982
857.2877,0.210022
859.1514,0.214928
861.0150,0.219605
862.8787,0.224520
864.7424,0.229520
866.6060,0.234384
868.4697,0.239567
870.3334,0.244590
872.1971,0.248858
874.0607,0.252134
875.9244,0.254560
877.7881,0.256799
879.6517,0.259108
881.5154,0.261747
883.3791,0.264580
885.2427,0.267923
887.1064,0.271628
888.9701,0.276030
890.8337,0.281038
892.6974,0.286390
894.5611,0.291984
896.4247,0.297819
898.2884,0.303398
900.1521,0.309131
902.0158,0.314787
903.8794,0.320400
905.7431,0.325569
907.6068,0.330370
909.4704,0.334838
911.3341,0.339263
913.1978,0.343398
915.0614,0.347268
916.9251,0.350750
918.7888,0.354231
920.6524,0.357638
922.5161,0.361038
924.3798,0.364531
926.2435,0.368342
928.1071,0.372113
929.9708,0.375852
931.8345,0.379709
933.6981,0.384042
935.5618,0.388282
937.4255,0.392301
939.2891,0.396298
941.1528,0.400326
943.0165,0.403791
944.8801,0.406878
946.7438,0.409150
948.6075,0.410379
950.4711,0.410433
952.3348,0.409915
954.1985,0.408444
956.0622,0.406352
957.9258,0.403484
959.7895,0.399996
961.6532,0.396461
963.5168,0.393301
965.3805,0.390067
967.2442,0.386907
969.1078,0.384069
970.9715,0.381928
972.8352,0.380298
974.6988,0.379163
976.5625,0.377967
978.4262,0.376661
980.2899,0.374984
982.1535,0.373233
984.0172,0.370942
985.8809,0.368121
987.7445,0.364386
989.6082,0.359981
991.4719,0.354838
993.3355,0.349073
995.1992,0.342725
997.0629,0.336007
998.9265,0.328910
1000.7902,0.321568
1002.6539,0.313925
1004.5175,0.306296
1006.3812,0.298613
1008.2449,0.291013
1010.1086,0.283229
1011.9722,0.275195
1013.8359,0.267138
1015.6996,0.259216
1017.5632,0.251377
1019.4269,0.243785
1021.2906,0.236392
1023.1542,0.229494
1025.0179,0.222883
1026.8816,0.216620
1028.7452,0.210507
1030.6089,0.204632
1032.4726,0.198830
1034.3362,0.193249
1036.1999,0.187922
1038.0636,0.182850
1039.9273,0.177982
1041.7909,0.173437
1043.6546,0.169130
1045.5183,0.165122
1047.3819,0.161335
1049.2456,0.157885
1051.1093,0.154892
1052.9729,0.152012
1054.8366,0.148992
1056.7003,0.146155
1058.5639,0.143554
1060.4276,0.140972
1062.2913,0.138410
1064.1550,0.136007
1066.0186,0.133605
1067.8823,0.131220
1069.7460,0.128900
1071.6096,0.126612
1073.4733,0.124144
1075.3370,0.121573
1077.2006,0.118993
1079.0643,0.116476
1080.9280,0.113979
1082.7916,0.111383
1084.6553,0.108821
1086.5190,0.106350
1088.3826,0.103831
1090.2463,0.101343
1092.1100,0.098848
1093.9737,0.096331
1095.8373,0.093755
1097.7010,0.091217
1099.5647,0.088741
1101.4283,0.086203
1103.2920,0.083627
1105.1557,0.081231
1107.0193,0.078975
1108.8830,0.076661
1110.7467,0.074350
1112.6103,0.072168
1114.4740,0.069982
1116.3377,0.067863
1118.2014,0.065881
1120.0650,0.063985
1121.9287,0.062153
1123.7924,0.060444
1125.6560,0.058887
1127.5197,0.057415
1129.3834,0.055921
1131.2470,0.054672
1133.1107,0.053689
1134.9744,0.052695
1136.8380,0.051706
1138.7017,0.050820
1140.5654,0.050019
1142.4290,0.049262
1144.2927,0.048530
1146.1564,0.047765
1148.0201,0.046912
1149.8837,0.046151
1151.7474,0.045416
1153.6111,0.044647
1155.4747,0.043891
1157.3384,0.043053
1159.2021,0.042108
1161.0657,0.041176
1162.9294,0.040213
1164.7931,0.039217
1166.6567,0.038093
1168.5204,0.036920
1170.3841,0.035822
1172.2477,0.034720
1174.1114,0.033660
1175.9751,0.032598
1177.8388,0.031551
1179.7024,0.030439
1181.5661,0.029274
1183.4298,0.028214
1185.2934,0.027176
1187.1571,0.026061
1189.0208,0.024954
1190.8844,0.023871
1192.7481,0.022855
1194.6118,0.021902
1196.4754,0.021004
1198.3391,0.020074
1200.2028,0.019144
1202.0665,0.018382
1203.9301,0.017692
1205.7938,0.016973
1207.6575,0.016279
1209.5211,0.015677
1211.3848,0.015153
1213.2485,0.014710
1215.1121,0.014215
1216.9758,0.013703
1218.8395,0.013324
1220.7031,0.012996
1222.5668,0.012673
1224.4305,0.012410
1226.2941,0.012124
1228.1578,0.011843
1230.0215,0.011618
1231.8852,0.011552
1233.7488,0.011385
1235.6125,0.011197
1237.4762,0.011041
1239.3398,0.010855
1241.2035,0.010829
1243.0672,0.010815
1244.9308,0.010672
1246.7945,0.010515
1248.6582,0.010407
1250.5218,0.010362
1252.3855,0.010342
1254.2492,0.010338
1256.1129,0.010296
1257.9765,0.010243
1259.8402,0.010210
1261.7039,0.010115
1263.5675,0.010068
1265.4312,0.010033
1267.2949,0.009951
1269.1585,0.009949
1271.0222,0.010095
1272.8859,0.010185
1274.7495,0.010142
1276.6132,0.010027
1278.4769,0.009969
1280.3405,0.010066
1282.2042,0.010191
1284.0679,0.010269
1285.9316,0.010249
1287.7952,0.010113
1289.6589,0.010081
1291.5226,0.010226
1293.3862,0.010370
1295.2499,0.010418
1297.1136,0.010424
1298.9772,0.010436
1300.8409,0.010512
1302.7046,0.010599
1304.5682,0.010707
1306.4319,0.010762
1308.2956,0.010774
1310.1592,0.010865
1312.0229,0.011072
1313.8866,0.011198
1315.7503,0.011301
1317.6139,0.011375
1319.4776,0.011318
1321.3413,0.011347
1323.2049,0.011491
1325.0686,0.011587
1326.9323,0.011705
1328.7959,0.011844
1330.6596,0.011979
1332.5233,0.012063
1334.3869,0.012242
1336.2506,0.012537
1338.1143,0.012689
1339.9780,0.012605
1341.8416,0.012494
1343.7053,0.012684
1345.5690,0.012943
1347.4326,0.013154
1349.2963,0.013299
1351.1600,0.013408
1353.0236,0.013658
1354.8873,0.013913
1356.7510,0.014085
1358.6146,0.014299
1360.4783,0.014652
1362.3420,0.014817
1364.2056,0.014539
1366.0693,0.014698
1367.9330,0.015075
1369.7967,0.015249
1371.6603,0.015664
1373.5240,0.016049
1375.3877,0.015871
1377.2513,0.015978
1379.1150,0.016266
1380.9787,0.016421
1382.8423,0.016646
1384.7060,0.017131
1386.5697,0.017587
1388.4333,0.017330
1390.2970,0.017419
1392.1607,0.018214
1394.0244,0.018728
1395.8880,0.018426
1397.7517,0.018524
1399.6154,0.018324
1401.4790,0.018296
1403.3427,0.018970
1405.2064,0.019063
1407.0700,0.018899
1408.9337,0.019225
1410.7974,0.019484
1412.6610,0.019519
1414.5247,0.019794
1416.3884,0.020367
1418.2520,0.020515
1420.1157,0.019218
1421.9794,0.019130
1423.8431,0.019411
1425.7067,0.019044
1427.5704,0.019462
1429.4341,0.019752
1431.2977,0.019278
1433.1614,0.019367
1435.0251,0.020153
1436.8887,0.019331
1438.7524,0.018025
1440.6161,0.018474
1442.4797,0.018693
1444.3434,0.018713
1446.2071,0.018893
1448.0707,0.018590
1449.9344,0.018203
1451.7981,0.018468
1453.6618,0.019054
1455.5254,0.019880
1457.3891,0.018410
1459.2528,0.016407
1461.1164,0.016937
1462.9801,0.017846
1464.8438,0.017492
1466.7074,0.016623
1468.5711,0.016966
1470.4348,0.017844
1472.2984,0.017750
1474.1621,0.016247
1476.0258,0.015845
1477.8895,0.015742
1479.7531,0.015923
1481.6168,0.015956
1483.4805,0.015746
1485.3441,0.015970
1487.2078,0.016279
1489.0715,0.016016
1490.9351,0.014815
1492.7988,0.014474
1494.6625,0.015276
1496.5261,0.015254
1498.3898,0.014244
1500.2535,0.013907
1502.1171,0.014060
1503.9808,0.014997
1505.8445,0.016044
1507.7082,0.013850
1509.5718,0.012545
1511.4355,0.012957
1513.2992,0.013265
1515.1628,0.013750
1517.0265,0.013512
1518.8902,0.013172
1520.7538,0.013571
1522.6175,0.012395
1524.4812,0.011974
1526.3448,0.012157
1528.2085,0.011935
1530.0722,0.012056
1531.9359,0.012559
1533.7995,0.012258
1535.6632,0.011670
1537.5269,0.012650
1539.3905,0.013311
1541.2542,0.011537
1543.1179,0.010817
1544.9815,0.010732
1546.8452,0.010642
1548.7089,0.011100
1550.5725,0.011093
1552.4362,0.011139
1554.2999,0.011502
1556.1635,0.011858
1558.0272,0.012962
1559.8909,0.010801
1561.7546,0.009559
1563.6182,0.010335
1565.4819,0.010632
1567.3456,0.010996
1569.2092,0.011398
1571.0729,0.010834
1572.9366,0.011071
1574.8002,0.011970
1576.6639,0.011579
1578.5276,0.010753
1580.3912,0.011203
1582.2549,0.011620
1584.1186,0.011745
1585.9822,0.011783
1587.8459,0.012041
1589.7096,0.012265
1591.5733,0.012400
1593.4369,0.012647
1595.3006,0.012866
1597.1643,0.013011
1599.0279,0.013162
1600.8916,0.013434
1602.7553,0.013832
1604.6189,0.014114
1606.4826,0.014457
1608.3463,0.014914
1610.2099,0.015216
1612.0736,0.015521
1613.9373,0.016248
1615.8010,0.017270
1617.6646,0.016898
1619.5283,0.016674
1621.3920,0.017676
1623.2556,0.018056
1625.1193,0.017901
1626.9830,0.018524
1628.8466,0.018941
1630.7103,0.019083
1632.5740,0.019931
1634.4376,0.021158
1636.3013,0.020297
1638.1650,0.019287
1640.0286,0.019748
1641.8923,0.020126
1643.7560,0.020686
1645.6197,0.021067
1647.4833,0.019842
1649.3470,0.019711
1651.2107,0.021674
1653.0743,0.021588
1654.9380,0.017826
1656.8017,0.018078
1658.6653,0.018828
1660.5290,0.019127
1662.3927,0.018801
1664.2563,0.017789
1666.1200,0.017859
1667.9837,0.018528
1669.8474,0.017859
1671.7110,0.016816
1673.5747,0.017196
1675.4384,0.016882
1677.3020,0.015809
1679.1657,0.015926
1681.0294,0.016256
1682.8930,0.016881
1684.7567,0.015549
1686.6204,0.013800
1688.4840,0.014006
1690.3477,0.013858
1692.2114,0.013709
1694.0750,0.014133
1695.9387,0.013889
1697.8024,0.013332
1699.6661,0.013765
1701.5297,0.011730
1703.3934,0.011211
1705.2571,0.011732
1707.1207,0.011296
1708.9844,0.011030
1710.8481,0.011116
1712.7117,0.011430
1714.5754,0.011879
1716.4391,0.011773
1718.3027,0.010383
1720.1664,0.009452
1722.0301,0.009884
1723.8937,0.010020
1725.7574,0.009895
1727.6211,0.010099
1729.4848,0.010377
1731.3484,0.010681
1733.2121,0.011048
1735.0758,0.009714
1736.9394,0.009198
1738.8031,0.009714
1740.6668,0.009348
1742.5304,0.009267
1744.3941,0.009551
1746.2578,0.009766
1748.1214,0.009962
1749.9851,0.009810
1751.8488,0.009142
1753.7125,0.009003
1755.5761,0.009497
1757.4398,0.009326
1759.3035,0.009353
1761.1671,0.009594
1763.0308,0.009034
1764.8945,0.008946
1766.7581,0.009435
1768.6218,0.009528
1770.4855,0.009697
1772.3491,0.009646
1774.2128,0.008888
1776.0765,0.008910
1777.9401,0.009182
1779.8038,0.009532
1781.6675,0.009599
1783.5312,0.009448
1785.3948,0.009320
1787.2585,0.009356
1789.1222,0.009714
1790.9858,0.010062
1792.8495,0.009768
1794.7132,0.009401
1796.5768,0.009550
1798.4405,0.009841
1800.3042,0.009918
1802.1678,0.009455
1804.0315,0.009258
1805.8952,0.009473
1807.7589,0.009600
1809.6225,0.009609
1811.4862,0.009432
1813.3499,0.009213
1815.2135,0.009373
1817.0772,0.009642
1818.9409,0.009701
1820.8045,0.009498
1822.6682,0.009585
1824.5319,0.009943
1826.3955,0.009814
1828.2592,0.009786
1830.1229,0.009639
1831.9865,0.009265
1833.8502,0.009414
1835.7139,0.009393
1837.5776,0.009361
1839.4412,0.009430
1841.3049,0.009700
1843.1686,0.010164
1845.0322,0.009941
1846.8959,0.009379
1848.7596,0.009271
1850.6232,0.009337
1852.4869,0.009592
1854.3506,0.009629
1856.2142,0.009531
1858.0779,0.009380
1859.9416,0.009285
1861.8052,0.009424
1863.6689,0.009811
1865.5326,0.010321
1867.3963,0.010496
1869.2599,0.009918
1871.1236,0.009349
1872.9873,0.009302
1874.8509,0.009382
1876.7146,0.009530
1878.5783,0.009784
1880.4419,0.009915
1882.3056,0.009917
1884.1693,0.009817
1886.0329,0.009824
1887.8966,0.010079
1889.7603,0.009977
1891.6240,0.009539
1893.4876,0.009756
1895.3513,0.009930
1897.2150,0.009747
1899.0786,0.009802
1900.9423,0.009852
1902.8060,0.009768
1904.6696,0.009663
1906.5333,0.009599
1908.3970,0.010034
1910.2606,0.010428
1912.1243,0.010305
1913.9880,0.010045
1915.8516,0.010074
1917.7153,0.010311
1919.5790,0.010198
1921.4427,0.010009
1923.3063,0.010044
1925.1700,0.009778
1927.0337,0.009482
1928.8973,0.009674
1930.7610,0.009812
1932.6247,0.009840
1934.4883,0.010082
1936.3520,0.010056
1938.2157,0.009919
1940.0793,0.010098
1941.9430,0.010394
1943.8067,0.009797
1945.6704,0.009324
1947.5340,0.009669
1949.3977,0.010148
1951.2614,0.009947
1953.1250,0.009639
1954.9887,0.009790
1956.8524,0.009967
1958.7160,0.010055
1960.5797,0.010374
1962.4434,0.010633
1964.3070,0.010549
1966.1707,0.010561
1968.0344,0.009862
1969.8980,0.009002
1971.7617,0.009288
1973.6254,0.009396
1975.4891,0.009348
1977.3527,0.009555
1979.2164,0.010250
1981.0801,0.010862
1982.9437,0.010914
1984.8074,0.010714
1986.6711,0.010340
1988.5347,0.010201
1990.3984,0.010028
1992.2621,0.010217
1994.1257,0.011061
1995.9894,0.011099
1997.8531,0.010553
1999.7167,0.010394
2001.5804,0.010126
2003.4441,0.009600
2005.3078,0.009730
2007.1714,0.010268
2009.0351,0.010204
2010.8988,0.009366
2012.7624,0.008827
2014.6261,0.009110
2016.4898,0.010018
2018.3534,0.010864
2020.2171,0.010899
2022.0808,0.010380
2023.9444,0.009778
2025.8081,0.009634
2027.6718,0.009677
2029.5355,0.009728
2031.3991,0.010618
2033.2628,0.010917
2035.1265,0.010362
2036.9901,0.010219
2038.8538,0.010043
2040.7175,0.009935
2042.5811,0.010607
2044.4448,0.010721
2046.3085,0.010209
2048.1721,0.010006
2050.0358,0.010271
2051.8995,0.010324
2053.7631,0.010008
2055.6268,0.009671
2057.4905,0.009524
2059.3542,0.009745
2061.2178,0.010199
2063.0815,0.010592
2064.9452,0.010744
2066.8088,0.010923
2068.6725,0.010922
2070.5362,0.010468
2072.3998,0.010076
2074.2635,0.010138
2076.1272,0.010434
2077.9908,0.010639
2079.8545,0.010588
2081.7182,0.010222
2083.5819,0.010107
2085.4455,0.010285
2087.3092,0.010575
2089.1729,0.010144
2091.0365,0.009426
2092.9002,0.009680
2094.7639,0.010302
2096.6275,0.010770
2098.4912,0.010577
2100.3549,0.010239
2102.2185,0.010604
2104.0822,0.010710
2105.9459,0.010551
2107.8095,0.010700
2109.6732,0.011065
2111.5369,0.010768
2113.4006,0.009912
2115.2642,0.009818
2117.1279,0.010215
2118.9916,0.010262
2120.8552,0.010385
2122.7189,0.010408
2124.5826,0.010248
2126.4462,0.010077
2128.3099,0.009646
2130.1736,0.009239
2132.0372,0.009334
2133.9009,0.009850
2135.7646,0.010330
2137.6282,0.010378
2139.4919,0.010323
2141.3556,0.010108
2143.2193,0.009587
2145.0829,0.009544
2146.9466,0.009386
2148.8103,0.008455
2150.6739,0.008661
2152.5376,0.009107
2154.4013,0.008846
2156.2649,0.009279
2158.1286,0.009485
2159.9923,0.009828
2161.8559,0.010600
2163.7196,0.010742
2165.5833,0.010786
2167.4470,0.010183
2169.3106,0.009397
2171.1743,0.009736
2173.0380,0.010923
2174.9016,0.010904
2176.7653,0.010023
2178.6290,0.010040
2180.4926,0.010622
2182.3563,0.011094
2184.2200,0.010791
2186.0836,0.010511
2187.9473,0.011036
2189.8110,0.011134
2191.6746,0.010649
2193.5383,0.010397
2195.4020,0.010330
2197.2657,0.010508
2199.1293,0.010833
2200.9930,0.011103
2202.8567,0.011399
2204.7203,0.011119
2206.5840,0.010216
2208.4477,0.009864
2210.3113,0.010475
2212.1750,0.011159
2214.0387,0.011379
2215.9023,0.011139
2217.7660,0.011075
2219.6297,0.011229
2221.4934,0.011001
2223.3570,0.010596
2225.2207,0.010657
2227.0844,0.011303
2228.9480,0.011757
2230.8117,0.011186
2232.6754,0.010719
2234.5390,0.010926
2236.4027,0.011061
2238.2664,0.011291
2240.1300,0.011598
2241.9937,0.011429
2243.8574,0.011264
2245.7210,0.011452
2247.5847,0.011459
2249.4484,0.011112
2251.3121,0.010744
2253.1757,0.010980
2255.0394,0.011408
2256.9031,0.011426
2258.7667,0.011762
2260.6304,0.012374
2262.4941,0.012048
2264.3577,0.011310
2266.2214,0.011197
2268.0851,0.011483
2269.9487,0.011579
2271.8124,0.011476
2273.6761,0.011416
2275.5397,0.011678
2277.4034,0.011789
2279.2671,0.011549
2281.1308,0.011542
2282.9944,0.011732
2284.8581,0.011941
2286.7218,0.011905
2288.5854,0.011800
2290.4491,0.011780
2292.3128,0.011784
2294.1764,0.011632
2296.0401,0.011531
2297.9038,0.011487
2299.7674,0.011306
2301.6311,0.011367
2303.4948,0.011541
2305.3585,0.011636
2307.2221,0.011596
2309.0858,0.011304
2310.9495,0.011315
2312.8131,0.011544
2314.6768,0.011511
2316.5405,0.011639
2318.4041,0.011747
2320.2678,0.011672
2322.1315,0.011786
2323.9951,0.011688
2325.8588,0.011047
2327.7225,0.010539
2329.5861,0.010758
2331.4498,0.010891
2333.3135,0.010519
2335.1772,0.010378
2337.0408,0.010577
2338.9045,0.010717
2340.7682,0.010729
2342.6318,0.010680
2344.4955,0.010336
2346.3592,0.010078
2348.2228,0.010299
2350.0865,0.010793
2351.9502,0.010987
2353.8138,0.010781
2355.6775,0.010845
2357.5412,0.010984
2359.4049,0.011041
2361.2685,0.010828
2363.1322,0.010401
2364.9959,0.010518
2366.8595,0.010766
2368.7232,0.010815
2370.5869,0.010485
2372.4505,0.009930
2374.3142,0.010077
2376.1779,0.010384
2378.0415,0.010494
2379.9052,0.010802
2381.7689,0.010929
2383.6325,0.010810
2385.4962,0.011073
2387.3599,0.011423
2389.2236,0.011268
2391.0872,0.011065
2392.9509,0.011234
2394.8146,0.011418
2396.6782,0.011394
2398.5419,0.011465
2400.4056,0.011497
2402.2692,0.011620
2404.1329,0.011684
2405.9966,0.011327
2407.8602,0.011159
2409.7239,0.011267
2411.5876,0.011335
2413.4512,0.011367
2415.3149,0.011397
2417.1786,0.011434
2419.0423,0.011621
2420.9059,0.011739
2422.7696,0.011611
2424.6333,0.011634
2426.4969,0.011741
2428.3606,0.011757
2430.2243,0.011795
2432.0879,0.011865
2433.9516,0.011944
2435.8153,0.011772
2437.6789,0.011570
2439.5426,0.011659
2441.4063,0.011860
2443.2700,0.011972
2445.1336,0.011682
2446.9973,0.011435
2448.8610,0.011627
2450.7246,0.011607
2452.5883,0.011486
2454.4520,0.011720
2456.3156,0.011824
2458.1793,0.011585
2460.0430,0.011325
2461.9066,0.011364
2463.7703,0.011829
2465.6340,0.012126
2467.4976,0.011912
2469.3613,0.011793
2471.2250,0.011926
2473.0887,0.011951
2474.9523,0.011918
2476.8160,0.012003
2478.6797,0.012098
2480.5433,0.012028
2482.4070,0.011683
2484.2707,0.011557
2486.1343,0.011833
2487.9980,0.011847
2489.8617,0.011881
2491.7253,0.011881
2493.5890,0.011871
2495.4527,0.011739
2497.3164,0.011556
2499.1800,0.011943
2501.0437,0.012218
2502.9074,0.012124
2504.7710,0.012115
2506.6347,0.012423
2508.4984,0.012406
2510.3620,0.011892
2512.2257,0.011844
2514.0894,0.012094
2515.9530,0.012422
2517.8167,0.012574
2519.6804,0.012239
2521.5440,0.012158
2523.4077,0.012189
2525.2714,0.011964
2527.1351,0.012095
2528.9987,0.012365
2530.8624,0.012360
2532.7261,0.012473
2534.5897,0.012342
2536.4534,0.011994
2538.3171,0.012094
2540.1807,0.012232
2542.0444,0.012003
2543.9081,0.011872
2545.7717,0.012280
2547.6354,0.012619
2549.4991,0.012436
2551.3627,0.012345
2553.2264,0.012049
2555.0901,0.011756
2556.9538,0.011919
2558.8174,0.012130
2560.6811,0.012137
2562.5448,0.012202
2564.4084,0.012397
2566.2721,0.012371
2568.1358,0.012377
2569.9994,0.012641
2571.8631,0.012574
2573.7268,0.012124
2575.5904,0.012290
2577.4541,0.012583
