Wavenumber,Intensity
600.1014,0.232284
601.9651,0.208043
603.8287,0.201261
605.6924,0.217565
607.5561,0.220861
609.4197,0.211011
611.2834,0.213123
613.1471,0.216087
615.0107,0.213604
616.8744,0.215569
618.7381,0.211554
620.6017,0.202326
622.4654,0.199125
624.3291,0.209437
626.1928,0.220930
628.0564,0.221242
629.9201,0.222345
631.7838,0.220621
633.6474,0.218758
635.5111,0.218808
637.3748,0.216252
639.2384,0.215239
641.1021,0.218978
642.9658,0.223167
644.8294,0.222815
646.6931,0.223379
648.5568,0.224629
650.4205,0.223594
652.2841,0.221438
654.1478,0.217711
656.0115,0.215859
657.8751,0.215516
659.7388,0.216278
661.6025,0.216392
663.4661,0.214610
665.3298,0.215677
667.1935,0.216681
669.0571,0.214193
670.9208,0.214572
672.7845,0.215235
674.6481,0.213440
676.5118,0.211321
678.3755,0.208108
680.2392,0.205249
682.1028,0.203123
683.9665,0.199805
685.8302,0.194566
687.6938,0.190564
689.5575,0.187532
691.4212,0.183217
693.2848,0.179186
695.1485,0.176289
697.0122,0.173211
698.8758,0.171226
700.7395,0.171004
702.6032,0.170616
704.4669,0.170917
706.3305,0.173066
708.1942,0.174954
710.0579,0.176205
711.9215,0.177791
713.7852,0.179687
715.6489,0.181671
717.5125,0.184119
719.3762,0.186786
721.2399,0.188093
723.1035,0.188313
724.9672,0.188246
726.8309,0.188084
728.6945,0.187233
730.5582,0.185579
732.4219,0.184079
734.2856,0.183233
736.1492,0.182906
738.0129,0.182393
739.8766,0.181433
741.7402,0.180548
743.6039,0.179456
745.4676,0.178092
747.3312,0.177319
749.1949,0.176476
751.0586,0.175875
752.9222,0.175440
754.7859,0.175676
756.6496,0.175946
758.5132,0.175315
760.3769,0.174557
762.2406,0.173626
764.1043,0.171967
765.9679,0.170206
767.8316,0.168425
769.6953,0.166429
771.5589,0.164569
773.4226,0.162986
775.2863,0.161613
777.1499,0.160757
779.0136,0.159838
780.8773,0.158888
782.7409,0.158281
784.6046,0.158207
786.4683,0.158455
788.3320,0.159227
790.1956,0.159458
792.0593,0.158920
793.9230,0.158682
795.7866,0.158864
797.6503,0.159319
799.5140,0.159866
801.3776,0.160632
803.2413,0.161841
805.1050,0.163290
806.9686,0.164629
808.8323,0.165951
810.6960,0.167206
812.5596,0.168617
814.4233,0.170393
816.2870,0.171481
818.1507,0.172039
820.0143,0.172081
821.8780,0.171528
823.7417,0.170998
825.6053,0.170747
827.4690,0.170976
829.3327,0.171730
831.1963,0.173193
833.0600,0.175746
834.9237,0.178763
836.7873,0.182251
838.6510,0.186268
840.5147,0.190576
842.3784,0.195056
844.2420,0.200020
846.1057,0.205391
847.9694,0.211143
849.8330,0.216759
851.6967,0.222625
853.5604,0.228508
855.4240,0.234562
857.2877,0.240587
859.1514,0.246568
861.0150,0.252339
862.8787,0.257905
864.7424,0.263256
866.6060,0.268506
868.4697,0.273645
870.3334,0.278701
872.1971,0.283585
874.0607,0.288257
875.9244,0.292456
877.7881,0.296700
879.6517,0.301117
881.5154,0.305745
883.3791,0.310764
885.2427,0.316239
887.1064,0.322146
888.9701,0.328846
890.8337,0.335837
892.6974,0.342689
894.5611,0.349337
896.4247,0.356113
898.2884,0.363081
900.1521,0.370266
902.0158,0.377324
903.8794,0.384428
905.7431,0.390773
907.6068,0.396444
909.4704,0.401595
911.3341,0.406458
913.1978,0.411146
915.0614,0.415617
916.9251,0.419732
918.7888,0.424287
920.6524,0.428748
922.5161,0.433061
924.3798,0.437217
926.2435,0.441767
928.1071,0.446203
929.9708,0.450414
931.8345,0.454667
933.6981,0.459077
935.5618,0.463629
937.4255,0.468290
939.2891,0.472336
941.1528,0.476266
943.0165,0.479258
944.8801,0.481184
946.7438,0.482537
948.6075,0.483067
950.4711,0.482031
952.3348,0.479949
954.1985,0.476930
956.0622,0.472845
957.9258,0.467650
959.7895,0.462672
961.6532,0.457643
963.5168,0.452826
965.3805,0.448350
967.2442,0.444282
969.1078,0.440674
970.9715,0.437958
972.8352,0.435682
974.6988,0.433813
976.5625,0.431759
978.4262,0.429654
980.2899,0.427408
982.1535,0.424750
984.0172,0.421259
985.8809,0.416891
987.7445,0.411609
989.6082,0.405545
991.4719,0.398549
993.3355,0.390717
995.1992,0.382019
997.0629,0.372834
998.9265,0.363220
1000.7902,0.353446
1002.6539,0.343487
1004.5175,0.333395
1006.3812,0.323181
1008.2449,0.313162
1010.1086,0.302923
1011.9722,0.292755
1013.8359,0.282862
1015.6996,0.273067
1017.5632,0.263300
1019.4269,0.253987
1021.2906,0.245239
1023.1542,0.237089
1025.0179,0.229182
1026.8816,0.221683
1028.7452,0.214647
1030.6089,0.207902
1032.4726,0.201320
1034.3362,0.195233
1036.1999,0.189476
1038.0636,0.184192
1039.9273,0.179169
1041.7909,0.174447
1043.6546,0.170274
1045.5183,0.166442
1047.3819,0.162899
1049.2456,0.159658
1051.1093,0.156705
1052.9729,0.153930
1054.8366,0.151138
1056.7003,0.148510
1058.5639,0.146055
1060.4276,0.143741
1062.2913,0.141443
1064.1550,0.139188
1066.0186,0.136788
1067.8823,0.134337
1069.7460,0.131905
1071.6096,0.129504
1073.4733,0.127036
1075.3370,0.124501
1077.2006,0.121818
1079.0643,0.119128
1080.9280,0.116491
1082.7916,0.113864
1084.6553,0.111152
1086.5190,0.108366
1088.3826,0.105622
1090.2463,0.103052
1092.1100,0.100329
1093.9737,0.097458
1095.8373,0.094704
1097.7010,0.092103
1099.5647,0.089525
1101.4283,0.086901
1103.2920,0.084270
1105.1557,0.081836
1107.0193,0.079356
1108.8830,0.076855
1110.7467,0.074464
1112.6103,0.072130
1114.4740,0.069858
1116.3377,0.067643
1118.2014,0.065496
1120.0650,0.063483
1121.9287,0.061634
1123.7924,0.059879
1125.6560,0.058218
1127.5197,0.056679
1129.3834,0.055255
1131.2470,0.054006
1133.1107,0.052855
1134.9744,0.051872
1136.8380,0.050949
1138.7017,0.050022
1140.5654,0.049165
1142.4290,0.048344
1144.2927,0.047619
1146.1564,0.046983
1148.0201,0.046227
1149.8837,0.045436
1151.7474,0.044725
1153.6111,0.043986
1155.4747,0.043166
1157.3384,0.042302
1159.2021,0.041365
1161.0657,0.040448
1162.9294,0.039509
1164.7931,0.038501
1166.6567,0.037370
1168.5204,0.036249
1170.3841,0.035239
1172.2477,0.034205
1174.1114,0.033134
1175.9751,0.032053
1177.8388,0.030954
1179.7024,0.029864
1181.5661,0.028838
1183.4298,0.027901
1185.2934,0.026918
1187.1571,0.025882
1189.0208,0.024904
1190.8844,0.023994
1192.7481,0.023092
1194.6118,0.022173
1196.4754,0.021283
1198.3391,0.020539
1200.2028,0.019791
1202.0665,0.019084
1203.9301,0.018369
1205.7938,0.017618
1207.6575,0.016996
1209.5211,0.016414
1211.3848,0.015948
1213.2485,0.015479
1215.1121,0.014950
1216.9758,0.014606
1218.8395,0.014366
1220.7031,0.014075
1222.5668,0.013746
1224.4305,0.013476
1226.2941,0.013227
1228.1578,0.013040
1230.0215,0.012903
1231.8852,0.012760
1233.7488,0.012657
1235.6125,0.012565
1237.4762,0.012341
1239.3398,0.012160
1241.2035,0.012091
1243.0672,0.011995
1244.9308,0.011813
1246.7945,0.011650
1248.6582,0.011593
1250.5218,0.011525
1252.3855,0.011400
1254.2492,0.011312
1256.1129,0.011324
1257.9765,0.011334
1259.8402,0.011317
1261.7039,0.011181
1263.5675,0.011158
1265.4312,0.011161
1267.2949,0.011136
1269.1585,0.011134
1271.0222,0.011167
1272.8859,0.011114
1274.7495,0.011005
1276.6132,0.010921
1278.4769,0.010933
1280.3405,0.011040
1282.2042,0.011012
1284.0679,0.010968
1285.9316,0.011036
1287.7952,0.011173
1289.6589,0.011175
1291.5226,0.011156
1293.3862,0.011101
1295.2499,0.011064
1297.1136,0.011092
1298.9772,0.011048
1300.8409,0.011025
1302.7046,0.011092
1304.5682,0.011156
1306.4319,0.011197
1308.2956,0.011314
1310.1592,0.011275
1312.0229,0.011494
1313.8866,0.011808
1315.7503,0.011853
1317.6139,0.011947
1319.4776,0.012034
1321.3413,0.011818
1323.2049,0.011578
1325.0686,0.011560
1326.9323,0.011597
1328.7959,0.011702
1330.6596,0.011759
1332.5233,0.011749
1334.3869,0.011876
1336.2506,0.012281
1338.1143,0.013067
1339.9780,0.013749
1341.8416,0.012914
1343.7053,0.012241
1345.5690,0.012187
1347.4326,0.012323
1349.2963,0.012432
1351.1600,0.012436
1353.0236,0.012520
1354.8873,0.012693
1356.7510,0.012812
1358.6146,0.012907
1360.4783,0.013323
1362.3420,0.014850
1364.2056,0.014862
1366.0693,0.013725
1367.9330,0.013774
1369.7967,0.013890
1371.6603,0.013759
1373.5240,0.014328
1375.3877,0.014442
1377.2513,0.014276
1379.1150,0.014501
1380.9787,0.014372
1382.8423,0.014475
1384.7060,0.014384
1386.5697,0.015694
1388.4333,0.016287
1390.2970,0.015532
1392.1607,0.015217
1394.0244,0.016612
1395.8880,0.017281
1397.7517,0.017280
1399.6154,0.017350
1401.4790,0.016071
1403.3427,0.016332
1405.2064,0.016957
1407.0700,0.016730
1408.9337,0.016392
1410.7974,0.016713
1412.6610,0.016719
1414.5247,0.017010
1416.3884,0.017414
1418.2520,0.018872
1420.1157,0.018804
1421.9794,0.017603
1423.8431,0.018024
1425.7067,0.017362
1427.5704,0.016985
1429.4341,0.017485
1431.2977,0.017960
1433.1614,0.017445
1435.0251,0.017645
1436.8887,0.019209
1438.7524,0.017768
1440.6161,0.017047
1442.4797,0.016670
1444.3434,0.016724
1446.2071,0.017021
1448.0707,0.017547
1449.9344,0.016907
1451.7981,0.017079
1453.6618,0.016858
1455.5254,0.018208
1457.3891,0.021056
1459.2528,0.019630
1461.1164,0.017055
1462.9801,0.016016
1464.8438,0.016759
1466.7074,0.016344
1468.5711,0.015816
1470.4348,0.016043
1472.2984,0.018606
1474.1621,0.018133
1476.0258,0.017387
1477.8895,0.015949
1479.7531,0.015275
1481.6168,0.015378
1483.4805,0.014866
1485.3441,0.015019
1487.2078,0.016053
1489.0715,0.017254
1490.9351,0.017297
1492.7988,0.015171
1494.6625,0.014764
1496.5261,0.015897
1498.3898,0.016236
1500.2535,0.015807
1502.1171,0.014806
1503.9808,0.014133
1505.8445,0.017418
1507.7082,0.021355
1509.5718,0.018674
1511.4355,0.016341
1513.2992,0.014824
1515.1628,0.015415
1517.0265,0.016807
1518.8902,0.015524
1520.7538,0.017335
1522.6175,0.017760
1524.4812,0.016502
1526.3448,0.015974
1528.2085,0.015442
1530.0722,0.014554
1531.9359,0.014026
1533.7995,0.015472
1535.6632,0.014581
1537.5269,0.014437
1539.3905,0.016564
1541.2542,0.018173
1543.1179,0.017484
1544.9815,0.016449
1546.8452,0.013793
1548.7089,0.014065
1550.5725,0.014794
1552.4362,0.014204
1554.2999,0.014992
1556.1635,0.014176
1558.0272,0.017028
1559.8909,0.019586
1561.7546,0.015614
1563.6182,0.013866
1565.4819,0.013301
1567.3456,0.013012
1569.2092,0.014607
1571.0729,0.014857
1572.9366,0.013702
1574.8002,0.014077
1576.6639,0.015882
1578.5276,0.014767
1580.3912,0.014168
1582.2549,0.014040
1584.1186,0.014327
1585.9822,0.014365
1587.8459,0.014620
1589.7096,0.014933
1591.5733,0.015226
1593.4369,0.015593
1595.3006,0.015966
1597.1643,0.016092
1599.0279,0.016085
1600.8916,0.016415
1602.7553,0.017083
1604.6189,0.017562
1606.4826,0.018037
1608.3463,0.018722
1610.2099,0.018997
1612.0736,0.019442
1613.9373,0.019703
1615.8010,0.021724
1617.6646,0.022913
1619.5283,0.022616
1621.3920,0.023103
1623.2556,0.024429
1625.1193,0.024447
1626.9830,0.025008
1628.8466,0.025649
1630.7103,0.025911
1632.5740,0.025912
1634.4376,0.027687
1636.3013,0.029742
1638.1650,0.028648
1640.0286,0.027829
1641.8923,0.027297
1643.7560,0.027481
1645.6197,0.029000
1647.4833,0.030681
1649.3470,0.028907
1651.2107,0.028447
1653.0743,0.031959
1654.9380,0.030027
1656.8017,0.027408
1658.6653,0.026078
1660.5290,0.025739
1662.3927,0.026152
1664.2563,0.025304
1666.1200,0.024579
1667.9837,0.025073
1669.8474,0.026255
1671.7110,0.025066
1673.5747,0.023817
1675.4384,0.024088
1677.3020,0.022674
1679.1657,0.022364
1681.0294,0.021468
1682.8930,0.022525
1684.7567,0.024622
1686.6204,0.021919
1688.4840,0.020666
1690.3477,0.019607
1692.2114,0.018529
1694.0750,0.018020
1695.9387,0.019708
1697.8024,0.018616
1699.6661,0.020347
1701.5297,0.018426
1703.3934,0.017152
1705.2571,0.017079
1707.1207,0.016252
1708.9844,0.015147
1710.8481,0.014058
1712.7117,0.013886
1714.5754,0.014829
1716.4391,0.016292
1718.3027,0.017173
1720.1664,0.014256
1722.0301,0.013010
1723.8937,0.012384
1725.7574,0.011955
1727.6211,0.011689
1729.4848,0.012436
1731.3484,0.012450
1733.2121,0.014175
1735.0758,0.014646
1736.9394,0.012563
1738.8031,0.012212
1740.6668,0.011906
1742.5304,0.012591
1744.3941,0.012333
1746.2578,0.012044
1748.1214,0.012277
1749.9851,0.012562
1751.8488,0.012927
1753.7125,0.011518
1755.5761,0.011106
1757.4398,0.010974
1759.3035,0.010788
1761.1671,0.011626
1763.0308,0.011787
1764.8945,0.010839
1766.7581,0.010840
1768.6218,0.010972
1770.4855,0.011260
1772.3491,0.013170
1774.2128,0.012488
1776.0765,0.011284
1777.9401,0.010201
1779.8038,0.010737
1781.6675,0.010844
1783.5312,0.010965
1785.3948,0.011080
1787.2585,0.010519
1789.1222,0.010143
1790.9858,0.011099
1792.8495,0.011938
1794.7132,0.011526
1796.5768,0.010956
1798.4405,0.010590
1800.3042,0.011269
1802.1678,0.011442
1804.0315,0.010775
1805.8952,0.010070
1807.7589,0.010145
1809.6225,0.010701
1811.4862,0.010933
1813.3499,0.010457
1815.2135,0.010044
1817.0772,0.010005
1818.9409,0.010172
1820.8045,0.010169
1822.6682,0.010157
1824.5319,0.010853
1826.3955,0.010842
1828.2592,0.010704
1830.1229,0.011276
1831.9865,0.010798
1833.8502,0.010221
1835.7139,0.009843
1837.5776,0.010096
1839.4412,0.009890
1841.3049,0.009653
1843.1686,0.010463
1845.0322,0.011777
1846.8959,0.011542
1848.7596,0.010812
1850.6232,0.009964
1852.4869,0.009957
1854.3506,0.009551
1856.2142,0.009626
1858.0779,0.009760
1859.9416,0.010118
1861.8052,0.009977
1863.6689,0.009930
1865.5326,0.009949
1867.3963,0.010892
1869.2599,0.011690
1871.1236,0.011064
1872.9873,0.010144
1874.8509,0.010114
1876.7146,0.010057
1878.5783,0.009829
1880.4419,0.009872
1882.3056,0.010060
1884.1693,0.009814
1886.0329,0.009835
1887.8966,0.010144
1889.7603,0.010658
1891.6240,0.010157
1893.4876,0.009770
1895.3513,0.009661
1897.2150,0.009916
1899.0786,0.009858
1900.9423,0.009757
1902.8060,0.009460
1904.6696,0.009547
1906.5333,0.009832
1908.3970,0.010330
1910.2606,0.010391
1912.1243,0.009942
1913.9880,0.009465
1915.8516,0.009497
1917.7153,0.010275
1919.5790,0.010812
1921.4427,0.010398
1923.3063,0.010073
1925.1700,0.010073
1927.0337,0.010087
1928.8973,0.009700
1930.7610,0.009799
1932.6247,0.009670
1934.4883,0.009409
1936.3520,0.008928
1938.2157,0.008896
1940.0793,0.009207
1941.9430,0.010146
1943.8067,0.010027
1945.6704,0.009921
1947.5340,0.009724
1949.3977,0.009769
1951.2614,0.009419
1953.1250,0.009219
1954.9887,0.009062
1956.8524,0.008814
1958.7160,0.008516
1960.5797,0.008775
1962.4434,0.008849
1964.3070,0.008787
1966.1707,0.008997
1968.0344,0.009911
1969.8980,0.009594
1971.7617,0.008686
1973.6254,0.008304
1975.4891,0.008545
1977.3527,0.008385
1979.2164,0.009065
1981.0801,0.009394
1982.9437,0.009844
1984.8074,0.009987
1986.6711,0.010080
1988.5347,0.010274
1990.3984,0.010682
1992.2621,0.010587
1994.1257,0.010326
1995.9894,0.009952
1997.8531,0.009726
1999.7167,0.009305
2001.5804,0.009274
2003.4441,0.009603
2005.3078,0.009882
2007.1714,0.009296
2009.0351,0.009140
2010.8988,0.009422
2012.7624,0.009584
2014.6261,0.009617
2016.4898,0.009775
2018.3534,0.009438
2020.2171,0.009622
2022.0808,0.009490
2023.9444,0.009245
2025.8081,0.009198
2027.6718,0.009230
2029.5355,0.009217
2031.3991,0.009306
2033.2628,0.009321
2035.1265,0.009381
2036.9901,0.009176
2038.8538,0.009535
2040.7175,0.010106
2042.5811,0.010386
2044.4448,0.010042
2046.3085,0.009965
2048.1721,0.009756
2050.0358,0.009807
2051.8995,0.009767
2053.7631,0.009719
2055.6268,0.009652
2057.4905,0.010023
2059.3542,0.010175
2061.2178,0.009968
2063.0815,0.009598
2064.9452,0.009776
2066.8088,0.009906
2068.6725,0.010102
2070.5362,0.010086
2072.3998,0.010239
2074.2635,0.010312
2076.1272,0.010301
2077.9908,0.010172
2079.8545,0.010071
2081.7182,0.010317
2083.5819,0.010654
2085.4455,0.010349
2087.3092,0.010174
2089.1729,0.010332
2091.0365,0.010668
2092.9002,0.010343
2094.7639,0.009965
2096.6275,0.010222
2098.4912,0.010484
2100.3549,0.010241
2102.2185,0.010240
2104.0822,0.010233
2105.9459,0.010406
2107.8095,0.010413
2109.6732,0.010530
2111.5369,0.010607
2113.4006,0.010555
2115.2642,0.010466
2117.1279,0.010194
2118.9916,0.009582
2120.8552,0.009442
2122.7189,0.009745
2124.5826,0.009822
2126.4462,0.009434
2128.3099,0.009335
2130.1736,0.009206
2132.0372,0.009247
2133.9009,0.009361
2135.7646,0.009280
2137.6282,0.009272
2139.4919,0.009453
2141.3556,0.009118
2143.2193,0.008887
2145.0829,0.008704
2146.9466,0.008520
2148.8103,0.008403
2150.6739,0.008769
2152.5376,0.008874
2154.4013,0.008740
2156.2649,0.007957
2158.1286,0.007563
2159.9923,0.008546
2161.8559,0.009680
2163.7196,0.009900
2165.5833,0.010133
2167.4470,0.009794
2169.3106,0.009580
2171.1743,0.009559
2173.0380,0.009340
2174.9016,0.009652
2176.7653,0.010374
2178.6290,0.010066
2180.4926,0.009640
2182.3563,0.009414
2184.2200,0.010093
2186.0836,0.010998
2187.9473,0.010975
2189.8110,0.010180
2191.6746,0.009937
2193.5383,0.009815
2195.4020,0.009822
2197.2657,0.009843
2199.1293,0.010029
2200.9930,0.010111
2202.8567,0.010439
2204.7203,0.010633
2206.5840,0.010842
2208.4477,0.010750
2210.3113,0.010731
2212.1750,0.010998
2214.0387,0.010612
2215.9023,0.010463
2217.7660,0.011239
2219.6297,0.011277
2221.4934,0.010667
2223.3570,0.010702
2225.2207,0.011195
2227.0844,0.011073
2228.9480,0.011297
2230.8117,0.011345
2232.6754,0.011228
2234.5390,0.011168
2236.4027,0.011101
2238.2664,0.010791
2240.1300,0.010722
2241.9937,0.010964
2243.8574,0.011059
2245.7210,0.011054
2247.5847,0.011118
2249.4484,0.011027
2251.3121,0.011262
2253.1757,0.011328
2255.0394,0.010951
2256.9031,0.010571
2258.7667,0.010917
2260.6304,0.011270
2262.4941,0.011437
2264.3577,0.011734
2266.2214,0.011863
2268.0851,0.011684
2269.9487,0.011716
2271.8124,0.011617
2273.6761,0.011378
2275.5397,0.011099
2277.4034,0.011139
2279.2671,0.011515
2281.1308,0.012108
2282.9944,0.012219
2284.8581,0.011900
2286.7218,0.011849
2288.5854,0.011951
2290.4491,0.012017
2292.3128,0.012230
2294.1764,0.012222
2296.0401,0.012080
2297.9038,0.011877
2299.7674,0.011891
2301.6311,0.012240
2303.4948,0.012599
2305.3585,0.012550
2307.2221,0.012792
2309.0858,0.012893
2310.9495,0.012836
2312.8131,0.012876
2314.6768,0.012555
2316.5405,0.012452
2318.4041,0.012701
2320.2678,0.012941
2322.1315,0.013702
2323.9951,0.014350
2325.8588,0.014367
2327.7225,0.013734
2329.5861,0.013014
2331.4498,0.013057
2333.3135,0.013206
2335.1772,0.012957
2337.0408,0.013054
2338.9045,0.013410
2340.7682,0.013733
2342.6318,0.014119
2344.4955,0.013741
2346.3592,0.013537
2348.2228,0.013034
2350.0865,0.012353
2351.9502,0.012538
2353.8138,0.012375
2355.6775,0.012121
2357.5412,0.012970
2359.4049,0.014273
2361.2685,0.015106
2363.1322,0.015496
2364.9959,0.014730
2366.8595,0.013706
2368.7232,0.013083
2370.5869,0.013297
2372.4505,0.013629
2374.3142,0.013420
2376.1779,0.012929
2378.0415,0.012702
2379.9052,0.012200
2381.7689,0.011792
2383.6325,0.011627
2385.4962,0.011472
2387.3599,0.011508
2389.2236,0.011568
2391.0872,0.011521
2392.9509,0.011476
2394.8146,0.011098
2396.6782,0.010848
2398.5419,0.010953
2400.4056,0.011168
2402.2692,0.011086
2404.1329,0.011208
2405.9966,0.011276
2407.8602,0.011278
2409.7239,0.011458
2411.5876,0.011633
2413.4512,0.011397
2415.3149,0.011098
2417.1786,0.011066
2419.0423,0.011448
2420.9059,0.011503
2422.7696,0.011437
2424.6333,0.011608
2426.4969,0.011794
2428.3606,0.011658
2430.2243,0.011374
2432.0879,0.011340
2433.9516,0.011711
2435.8153,0.011683
2437.6789,0.011525
2439.5426,0.011475
2441.4063,0.011359
2443.2700,0.011469
2445.1336,0.011845
2446.9973,0.012001
2448.8610,0.011962
2450.7246,0.011859
2452.5883,0.011973
2454.4520,0.012017
2456.3156,0.011917
2458.1793,0.011809
2460.0430,0.011719
2461.9066,0.011614
2463.7703,0.011573
2465.6340,0.011346
2467.4976,0.011234
2469.3613,0.011370
2471.2250,0.011674
2473.0887,0.011669
2474.9523,0.011359
2476.8160,0.011199
2478.6797,0.011389
2480.5433,0.011801
2482.4070,0.012023
2484.2707,0.011855
2486.1343,0.011775
2487.9980,0.011813
2489.8617,0.011559
2491.7253,0.011509
2493.5890,0.011700
2495.4527,0.011309
2497.3164,0.011241
2499.1800,0.011400
2501.0437,0.011334
2502.9074,0.011628
2504.7710,0.012154
2506.6347,0.012298
2508.4984,0.012041
2510.3620,0.011637
2512.2257,0.011796
2514.0894,0.011802
2515.9530,0.011492
2517.8167,0.011602
2519.6804,0.011833
2521.5440,0.011886
2523.4077,0.011859
2525.2714,0.012014
2527.1351,0.012543
2528.9987,0.012469
2530.8624,0.011761
2532.7261,0.011305
2534.5897,0.011616
2536.4534,0.011938
2538.3171,0.011801
2540.1807,0.011589
2542.0444,0.012001
2543.9081,0.012203
2545.7717,0.011979
2547.6354,0.011899
2549.4991,0.012133
2551.3627,0.011910
2553.2264,0.011664
2555.0901,0.011951
2556.9538,0.011967
2558.8174,0.011923
2560.6811,0.012093
2562.5448,0.011711
2564.4084,0.011438
2566.2721,0.011477
2568.1358,0.011668
2569.9994,0.011926
2571.8631,0.012044
2573.7268,0.012210
2575.5904,0.011996
2577.4541,0.011594
