Wavenumber,Intensity
650.4205,0.001838
652.2841,0.001182
654.1478,0.001791
656.0115,0.002107
657.8751,0.002495
659.7388,0.003986
661.6025,0.003731
663.4661,0.002061
665.3298,0.002732
667.1935,0.005591
669.0571,0.005223
670.9208,0.002408
672.7845,0.002041
674.6481,0.003275
676.5118,0.003337
678.3755,0.002622
680.2392,0.002451
682.1028,0.002790
683.9665,0.003209
685.8302,0.003360
687.6938,0.003590
689.5575,0.004085
691.4212,0.004289
693.2848,0.004835
695.1485,0.004611
697.0122,0.003716
698.8758,0.002970
700.7395,0.002439
702.6032,0.002451
704.4669,0.002526
706.3305,0.002441
708.1942,0.002373
710.0579,0.002124
711.9215,0.001798
713.7852,0.001799
715.6489,0.002277
717.5125,0.002668
719.3762,0.002551
721.2399,0.002579
723.1035,0.002655
724.9672,0.002375
726.8309,0.002320
728.6945,0.002465
730.5582,0.002329
732.4219,0.002246
734.2856,0.002307
736.1492,0.002417
738.0129,0.002515
739.8766,0.002699
741.7402,0.002924
743.6039,0.003144
745.4676,0.002977
747.3312,0.002904
749.1949,0.003187
751.0586,0.003363
752.9222,0.003373
754.7859,0.003537
756.6496,0.003317
758.5132,0.003101
760.3769,0.003414
762.2406,0.003952
764.1043,0.004410
765.9679,0.004684
767.8316,0.004816
769.6953,0.005106
771.5589,0.005671
773.4226,0.006154
775.2863,0.006543
777.1499,0.006888
779.0136,0.006949
780.8773,0.006776
782.7409,0.006293
784.6046,0.005780
786.4683,0.005466
788.3320,0.005286
790.1956,0.005199
792.0593,0.005470
793.9230,0.006210
795.7866,0.006814
797.6503,0.006961
799.5140,0.006786
801.3776,0.006225
803.2413,0.005371
805.1050,0.004251
806.9686,0.003317
808.8323,0.002654
810.6960,0.002002
812.5596,0.001723
814.4233,0.001645
816.2870,0.001342
818.1507,0.001230
820.0143,0.001015
821.8780,0.000705
823.7417,0.000881
825.6053,0.001122
827.4690,0.001048
829.3327,0.001048
831.1963,0.001229
833.0600,0.001368
834.9237,0.001331
836.7873,0.001232
838.6510,0.001140
840.5147,0.001163
842.3784,0.001200
844.2420,0.001212
846.1057,0.001259
847.9694,0.001413
849.8330,0.001554
851.6967,0.001693
853.5604,0.001784
855.4240,0.001572
857.2877,0.001407
859.1514,0.001520
861.0150,0.001580
862.8787,0.001770
864.7424,0.001998
866.6060,0.001986
868.4697,0.001870
870.3334,0.001812
872.1971,0.001804
874.0607,0.001851
875.9244,0.001931
877.7881,0.001994
879.6517,0.001959
881.5154,0.001926
883.3791,0.002085
885.2427,0.002200
887.1064,0.002090
888.9701,0.002056
890.8337,0.002166
892.6974,0.002230
894.5611,0.002247
896.4247,0.002312
898.2884,0.002282
900.1521,0.002383
902.0158,0.002604
903.8794,0.002610
905.7431,0.002414
907.6068,0.002241
909.4704,0.002337
911.3341,0.002623
913.1978,0.002917
915.0614,0.002975
916.9251,0.002801
918.7888,0.002765
920.6524,0.002808
922.5161,0.002720
924.3798,0.002743
926.2435,0.002976
928.1071,0.003147
929.9708,0.003131
931.8345,0.003107
933.6981,0.003246
935.5618,0.003358
937.4255,0.003354
939.2891,0.003477
941.1528,0.003534
943.0165,0.003453
944.8801,0.003555
946.7438,0.003722
948.6075,0.003801
950.4711,0.003808
952.3348,0.003740
954.1985,0.003738
956.0622,0.003868
957.9258,0.003951
959.7895,0.003979
961.6532,0.003993
963.5168,0.004037
965.3805,0.004076
967.2442,0.004097
969.1078,0.004182
970.9715,0.004235
972.8352,0.004278
974.6988,0.004348
976.5625,0.004398
978.4262,0.004493
980.2899,0.004625
982.1535,0.004730
984.0172,0.004747
985.8809,0.004801
987.7445,0.004954
989.6082,0.005094
991.4719,0.005154
993.3355,0.005234
995.1992,0.005428
997.0629,0.005526
998.9265,0.005546
1000.7902,0.005656
1002.6539,0.005809
1004.5175,0.005907
1006.3812,0.005954
1008.2449,0.006023
1010.1086,0.006126
1011.9722,0.006202
1013.8359,0.006237
1015.6996,0.006368
1017.5632,0.006564
1019.4269,0.006757
1021.2906,0.006915
1023.1542,0.007107
1025.0179,0.007231
1026.8816,0.007312
1028.7452,0.007567
1030.6089,0.007847
1032.4726,0.007980
1034.3362,0.008109
1036.1999,0.008401
1038.0636,0.008677
1039.9273,0.008765
1041.7909,0.008863
1043.6546,0.009137
1045.5183,0.009451
1047.3819,0.009691
1049.2456,0.010010
1051.1093,0.010346
1052.9729,0.010631
1054.8366,0.010912
1056.7003,0.011218
1058.5639,0.011571
1060.4276,0.011913
1062.2913,0.012233
1064.1550,0.012575
1066.0186,0.012881
1067.8823,0.013105
1069.7460,0.013325
1071.6096,0.013579
1073.4733,0.013920
1075.3370,0.014356
1077.2006,0.014587
1079.0643,0.014749
1080.9280,0.014979
1082.7916,0.015016
1084.6553,0.014957
1086.5190,0.014869
1088.3826,0.014603
1090.2463,0.014295
1092.1100,0.014092
1093.9737,0.013867
1095.8373,0.013541
1097.7010,0.013185
1099.5647,0.012948
1101.4283,0.012702
1103.2920,0.012293
1105.1557,0.011920
1107.0193,0.011635
1108.8830,0.011348
1110.7467,0.011082
1112.6103,0.010818
1114.4740,0.010568
1116.3377,0.010280
1118.2014,0.009975
1120.0650,0.009761
1121.9287,0.009475
1123.7924,0.009112
1125.6560,0.008825
1127.5197,0.008567
1129.3834,0.008310
1131.2470,0.008078
1133.1107,0.007859
1134.9744,0.007651
1136.8380,0.007467
1138.7017,0.007313
1140.5654,0.007116
1142.4290,0.006870
1144.2927,0.006652
1146.1564,0.006464
1148.0201,0.006261
1149.8837,0.006160
1151.7474,0.006065
1153.6111,0.005903
1155.4747,0.005795
1157.3384,0.005726
1159.2021,0.005755
1161.0657,0.005953
1162.9294,0.006121
1164.7931,0.006138
1166.6567,0.005945
1168.5204,0.005657
1170.3841,0.005440
1172.2477,0.005301
1174.1114,0.005090
1175.9751,0.004866
1177.8388,0.004777
1179.7024,0.004723
1181.5661,0.004629
1183.4298,0.004501
1185.2934,0.004432
1187.1571,0.004372
1189.0208,0.004241
1190.8844,0.004189
1192.7481,0.004139
1194.6118,0.003969
1196.4754,0.003829
1198.3391,0.003767
1200.2028,0.003677
1202.0665,0.003508
1203.9301,0.003321
1205.7938,0.003135
1207.6575,0.002954
1209.5211,0.002810
1211.3848,0.002623
1213.2485,0.002377
1215.1121,0.002134
1216.9758,0.001891
1218.8395,0.001691
1220.7031,0.001549
1222.5668,0.001441
1224.4305,0.001325
1226.2941,0.001176
1228.1578,0.001072
1230.0215,0.001064
1231.8852,0.001039
1233.7488,0.000876
1235.6125,0.000750
1237.4762,0.000799
1239.3398,0.000815
1241.2035,0.000750
1243.0672,0.000726
1244.9308,0.000684
1246.7945,0.000592
1248.6582,0.000531
1250.5218,0.000554
1252.3855,0.000486
1254.2492,0.000457
1256.1129,0.000557
1257.9765,0.000557
1259.8402,0.000506
1261.7039,0.000506
1263.5675,0.000472
1265.4312,0.000400
1267.2949,0.000394
1269.1585,0.000432
1271.0222,0.000343
1272.8859,0.000307
1274.7495,0.000302
1276.6132,0.000160
1278.4769,0.000174
1280.3405,0.000289
1282.2042,0.000283
1284.0679,0.000227
1285.9316,0.000223
1287.7952,0.000196
1289.6589,0.000173
1291.5226,0.000187
1293.3862,0.000168
1295.2499,0.000159
1297.1136,0.000152
1298.9772,0.000146
1300.8409,0.000121
1302.7046,0.000057
1304.5682,0.000040
1306.4319,0.000042
1308.2956,0.000048
1310.1592,0.000104
1312.0229,0.000089
1313.8866,0.000101
1315.7503,0.000204
1317.6139,0.000223
1319.4776,0.000176
1321.3413,0.000121
1323.2049,0.000105
1325.0686,-0.000004
1326.9323,-0.000119
1328.7959,-0.000021
1330.6596,0.000144
1332.5233,0.000125
1334.3869,-0.000016
1336.2506,-0.000062
1338.1143,0.000176
1339.9780,0.000327
1341.8416,0.000226
1343.7053,0.000031
1345.5690,-0.000019
1347.4326,-0.000008
1349.2963,-0.000042
1351.1600,-0.000008
1353.0236,0.000023
1354.8873,0.000083
1356.7510,0.000066
1358.6146,-0.000041
1360.4783,-0.000003
1362.3420,0.000063
1364.2056,0.000158
1366.0693,0.000136
1367.9330,0.000035
1369.7967,0.000055
1371.6603,0.000033
1373.5240,0.000163
1375.3877,0.000379
1377.2513,0.000270
1379.1150,-0.000036
1380.9787,0.000021
1382.8423,-0.000059
1384.7060,-0.000095
1386.5697,-0.000039
1388.4333,0.000087
1390.2970,-0.000009
1392.1607,-0.000253
1394.0244,-0.000247
1395.8880,0.000211
1397.7517,0.000373
1399.6154,0.000169
1401.4790,0.000378
1403.3427,0.000091
1405.2064,0.000145
1407.0700,0.000196
1408.9337,-0.000028
1410.7974,-0.000142
1412.6610,-0.000017
1414.5247,-0.000148
1416.3884,-0.000288
1418.2520,-0.000126
1420.1157,0.000561
1421.9794,0.000688
1423.8431,0.000094
1425.7067,0.000169
1427.5704,0.000076
1429.4341,0.000086
1431.2977,0.000299
1433.1614,0.000102
1435.0251,-0.000146
1436.8887,0.000163
1438.7524,0.000694
1440.6161,0.000073
1442.4797,-0.000135
1444.3434,-0.000085
1446.2071,-0.000136
1448.0707,0.000081
1449.9344,0.000384
1451.7981,0.000140
1453.6618,-0.000080
1455.5254,-0.000276
1457.3891,0.000390
1459.2528,0.001253
1461.1164,0.000327
1462.9801,-0.000208
1464.8438,0.000013
1466.7074,0.000610
1468.5711,0.000000
1470.4348,-0.000487
1472.2984,-0.000556
1474.1621,0.000586
1476.0258,0.000535
1477.8895,0.000436
1479.7531,0.000305
1481.6168,0.000031
1483.4805,-0.000025
1485.3441,-0.000321
1487.2078,-0.000221
1489.0715,0.000568
1490.9351,0.000882
1492.7988,0.000466
1494.6625,-0.000344
1496.5261,-0.000223
1498.3898,0.000562
1500.2535,0.000425
1502.1171,-0.000124
1503.9808,-0.000628
1505.8445,-0.000685
1507.7082,0.001267
1509.5718,0.001637
1511.4355,0.000660
1513.2992,0.000451
1515.1628,0.000193
1517.0265,-0.000042
1518.8902,0.000399
1520.7538,-0.000159
1522.6175,0.000378
1524.4812,0.000613
1526.3448,0.000584
1528.2085,0.000821
1530.0722,0.000116
1531.9359,-0.000018
1533.7995,0.000426
1535.6632,0.000670
1537.5269,-0.000778
1539.3905,-0.001051
1541.2542,0.000946
1543.1179,0.001276
1544.9815,0.000890
1546.8452,0.000811
1548.7089,0.000249
1550.5725,0.000080
1552.4362,0.000093
1554.2999,-0.000520
1556.1635,-0.000276
1558.0272,-0.000686
1559.8909,0.001560
1561.7546,0.001854
1563.6182,0.000256
1565.4819,-0.000072
1567.3456,0.000015
1569.2092,-0.000045
1571.0729,0.000697
1572.9366,0.000154
1574.8002,-0.000755
1576.6639,0.000005
1578.5276,0.000872
1580.3912,0.000105
1582.2549,-0.000005
1584.1186,0.000036
1585.9822,-0.000013
1587.8459,-0.000123
1589.7096,-0.000221
1591.5733,-0.000083
1593.4369,-0.000159
1595.3006,-0.000019
1597.1643,0.000067
1599.0279,-0.000043
1600.8916,-0.000084
1602.7553,-0.000045
1604.6189,-0.000157
1606.4826,-0.000090
1608.3463,0.000058
1610.2099,0.000252
1612.0736,0.000043
1613.9373,-0.000250
1615.8010,-0.000944
1617.6646,0.000006
1619.5283,0.000468
1621.3920,-0.000339
1623.2556,-0.000220
1625.1193,0.000632
1626.9830,0.000119
1628.8466,0.000120
1630.7103,0.000181
1632.5740,-0.000445
1634.4376,-0.000938
1636.3013,0.000385
1638.1650,0.001198
1640.0286,0.000379
1641.8923,0.000202
1643.7560,-0.000351
1645.6197,-0.000338
1647.4833,0.000991
1649.3470,0.000740
1651.2107,-0.000982
1653.0743,-0.000630
1654.9380,0.002213
1656.8017,0.000760
1658.6653,-0.000214
1660.5290,-0.000238
1662.3927,-0.000085
1664.2563,0.000533
1666.1200,0.000106
1667.9837,-0.000396
1669.8474,-0.000058
1671.7110,0.000293
1673.5747,-0.000003
1675.4384,0.000241
1677.3020,0.000910
1679.1657,-0.000018
1681.0294,-0.000168
1682.8930,-0.000338
1684.7567,0.000379
1686.6204,0.001429
1688.4840,0.000276
1690.3477,0.000141
1692.2114,-0.000006
1694.0750,-0.000536
1695.9387,-0.000309
1697.8024,0.000978
1699.6661,-0.000464
1701.5297,0.001415
1703.3934,0.000828
1705.2571,-0.000348
1707.1207,0.000343
1708.9844,0.000187
1710.8481,0.000046
1712.7117,-0.000005
1714.5754,-0.000171
1716.4391,-0.000115
1718.3027,0.000293
1720.1664,0.001035
1722.0301,0.000176
1723.8937,0.000039
1725.7574,0.000032
1727.6211,-0.000106
1729.4848,-0.000131
1731.3484,-0.000039
1733.2121,-0.000254
1735.0758,0.001031
1736.9394,0.000839
1738.8031,-0.000452
1740.6668,0.000334
1742.5304,0.000425
1744.3941,0.000286
1746.2578,0.000077
1748.1214,-0.000112
1749.9851,0.000567
1751.8488,0.001109
1753.7125,0.000850
1755.5761,-0.000071
1757.4398,0.000137
1759.3035,0.000189
1761.1671,-0.000143
1763.0308,0.000459
1764.8945,0.000236
1766.7581,-0.000349
1768.6218,-0.000123
1770.4855,0.000011
1772.3491,-0.000018
1774.2128,0.000629
1776.0765,0.000122
1777.9401,-0.000002
1779.8038,-0.000066
1781.6675,0.000133
1783.5312,-0.000015
1785.3948,-0.000023
1787.2585,0.000121
1789.1222,-0.000138
1790.9858,-0.000323
1792.8495,0.000308
1794.7132,0.000614
1796.5768,0.000063
1798.4405,0.000008
1800.3042,0.000105
1802.1678,0.000418
1804.0315,0.000333
1805.8952,-0.000144
1807.7589,-0.000303
1809.6225,-0.000160
1811.4862,0.000079
1813.3499,0.000172
1815.2135,-0.000127
1817.0772,-0.000103
1818.9409,-0.000034
1820.8045,-0.000131
1822.6682,-0.000081
1824.5319,0.000032
1826.3955,0.000364
1828.2592,0.000026
1830.1229,0.000016
1831.9865,0.000545
1833.8502,-0.000048
1835.7139,-0.000304
1837.5776,-0.000179
1839.4412,-0.000039
1841.3049,-0.000184
1843.1686,-0.000503
1845.0322,0.000267
1846.8959,0.000718
1848.7596,0.000093
1850.6232,0.000058
1852.4869,0.000022
1854.3506,0.000065
1856.2142,-0.000048
1858.0779,-0.000093
1859.9416,-0.000204
1861.8052,-0.000076
1863.6689,-0.000117
1865.5326,-0.000179
1867.3963,-0.000173
1869.2599,0.000244
1871.1236,0.000491
1872.9873,0.000169
1874.8509,-0.000119
1876.7146,0.000011
1878.5783,0.000082
1880.4419,0.000034
1882.3056,0.000062
1884.1693,0.000149
1886.0329,0.000257
1887.8966,0.000314
1889.7603,0.000356
1891.6240,0.000250
1893.4876,-0.000170
1895.3513,-0.000003
1897.2150,0.000011
1899.0786,0.000007
1900.9423,-0.000103
1902.8060,-0.000117
1904.6696,-0.000026
1906.5333,0.000039
1908.3970,-0.000122
1910.2606,-0.000107
1912.1243,0.000155
1913.9880,0.000195
1915.8516,0.000018
1917.7153,0.000257
1919.5790,0.000497
1921.4427,0.000123
1923.3063,0.000170
1925.1700,0.000334
1927.0337,-0.000012
1928.8973,-0.000155
1930.7610,-0.000008
1932.6247,-0.000109
1934.4883,-0.000325
1936.3520,0.000235
1938.2157,0.000215
1940.0793,-0.000390
1941.9430,-0.000563
1943.8067,0.000339
1945.6704,0.000258
1947.5340,-0.000487
1949.3977,-0.000539
1951.2614,-0.000396
1953.1250,-0.000385
1954.9887,-0.000053
1956.8524,0.000519
1958.7160,0.000682
1960.5797,0.000175
1962.4434,-0.000415
1964.3070,-0.000195
1966.1707,-0.000278
1968.0344,-0.000765
1969.8980,0.000141
1971.7617,0.000829
1973.6254,0.000093
1975.4891,-0.000438
1977.3527,-0.000102
1979.2164,0.000232
1981.0801,0.000173
1982.9437,0.000146
1984.8074,0.000231
1986.6711,-0.000313
1988.5347,-0.000012
1990.3984,-0.000169
1992.2621,-0.000911
1994.1257,-0.000778
1995.9894,-0.000020
1997.8531,0.000416
1999.7167,0.000853
2001.5804,0.000197
2003.4441,-0.000381
2005.3078,0.000202
2007.1714,0.000023
2009.0351,-0.001081
2010.8988,-0.000795
2012.7624,-0.000095
2014.6261,-0.000479
2016.4898,-0.000105
2018.3534,0.000395
2020.2171,0.000261
2022.0808,-0.000167
2023.9444,-0.000337
2025.8081,-0.000418
2027.6718,-0.000347
2029.5355,0.000174
2031.3991,0.000141
2033.2628,-0.000381
2035.1265,-0.000194
2036.9901,0.000025
2038.8538,-0.000561
2040.7175,-0.000801
2042.5811,-0.000817
2044.4448,-0.000487
2046.3085,-0.000382
2048.1721,-0.000339
2050.0358,0.000740
2051.8995,0.001287
2053.7631,0.000571
2055.6268,-0.000124
2057.4905,-0.000452
2059.3542,-0.000437
2061.2178,-0.000435
2063.0815,-0.000313
2064.9452,-0.000109
2066.8088,-0.000087
2068.6725,-0.000544
2070.5362,-0.000035
2072.3998,0.000377
2074.2635,0.000324
2076.1272,-0.000118
2077.9908,-0.000466
2079.8545,-0.000484
2081.7182,-0.000559
2083.5819,-0.000381
2085.4455,0.000191
2087.3092,-0.000009
2089.1729,-0.000234
2091.0365,-0.000279
2092.9002,-0.000104
2094.7639,-0.000255
2096.6275,-0.000230
2098.4912,0.000131
2100.3549,0.000164
2102.2185,-0.000004
2104.0822,0.000101
2105.9459,0.000368
2107.8095,0.000256
2109.6732,-0.000225
2111.5369,-0.000395
2113.4006,-0.000731
2115.2642,-0.000276
2117.1279,0.000598
2118.9916,0.000302
2120.8552,-0.000239
2122.7189,-0.000199
2124.5826,-0.000252
2126.4462,-0.000335
2128.3099,-0.000313
2130.1736,-0.000486
2132.0372,-0.000700
2133.9009,-0.000562
2135.7646,-0.000649
2137.6282,-0.000897
2139.4919,-0.001136
2141.3556,-0.000634
2143.2193,-0.000309
2145.0829,-0.000349
2146.9466,0.000123
2148.8103,-0.000380
2150.6739,-0.001235
2152.5376,-0.000780
2154.4013,-0.000491
2156.2649,-0.000410
2158.1286,-0.000557
2159.9923,-0.000560
2161.8559,-0.000034
2163.7196,-0.000074
2165.5833,-0.000250
2167.4470,0.000351
2169.3106,0.000178
2171.1743,0.000130
2173.0380,-0.000496
2174.9016,-0.001216
2176.7653,-0.000460
2178.6290,0.000591
2180.4926,-0.000042
2182.3563,-0.000824
2184.2200,-0.001435
2186.0836,-0.001391
2187.9473,-0.000578
2189.8110,-0.000158
2191.6746,-0.000302
2193.5383,-0.000561
2195.4020,-0.000599
2197.2657,-0.000597
2199.1293,-0.000595
2200.9930,-0.000212
2202.8567,0.000049
2204.7203,-0.000230
2206.5840,-0.000812
2208.4477,-0.000683
2210.3113,-0.000189
2212.1750,-0.000055
2214.0387,-0.000314
2215.9023,-0.000324
2217.7660,-0.000752
2219.6297,-0.000345
2221.4934,0.000347
2223.3570,0.000162
2225.2207,-0.000374
2227.0844,-0.000323
2228.9480,-0.000102
2230.8117,0.000020
2232.6754,0.000346
2234.5390,-0.000374
2236.4027,-0.000731
2238.2664,-0.000179
2240.1300,-0.000416
2241.9937,-0.000547
2243.8574,0.000220
2245.7210,0.000569
2247.5847,0.000224
2249.4484,-0.000273
2251.3121,-0.000628
2253.1757,-0.000389
2255.0394,-0.000156
2256.9031,-0.000139
2258.7667,-0.000088
2260.6304,-0.000416
2262.4941,-0.000953
2264.3577,-0.000716
2266.2214,-0.000200
2268.0851,-0.000398
2269.9487,-0.000433
2271.8124,-0.000159
2273.6761,-0.000239
2275.5397,-0.000357
2277.4034,-0.000805
2279.2671,-0.000582
2281.1308,0.000003
2282.9944,0.000257
2284.8581,-0.000133
2286.7218,-0.000496
2288.5854,-0.000365
2290.4491,-0.000040
2292.3128,0.000243
2294.1764,0.000016
2296.0401,-0.000401
2297.9038,-0.000038
2299.7674,0.000307
2301.6311,0.000084
2303.4948,0.000159
2305.3585,0.000655
2307.2221,0.000648
2309.0858,0.000418
2310.9495,0.000465
2312.8131,0.000616
2314.6768,0.000868
2316.5405,0.001218
2318.4041,0.001087
2320.2678,0.001106
2322.1315,0.001651
2323.9951,0.001968
2325.8588,0.002171
2327.7225,0.002466
2329.5861,0.002288
2331.4498,0.001935
2333.3135,0.001980
2335.1772,0.002201
2337.0408,0.002393
2338.9045,0.002224
2340.7682,0.002008
2342.6318,0.002187
2344.4955,0.002237
2346.3592,0.002085
2348.2228,0.001330
2350.0865,0.000730
2351.9502,0.001133
2353.8138,0.001373
2355.6775,0.002043
2357.5412,0.003293
2359.4049,0.003360
2361.2685,0.003048
2363.1322,0.003431
2364.9959,0.003901
2366.8595,0.003285
2368.7232,0.002160
2370.5869,0.001864
2372.4505,0.002021
2374.3142,0.001736
2376.1779,0.001190
2378.0415,0.000623
2379.9052,0.000229
2381.7689,0.000092
2383.6325,-0.000158
2385.4962,-0.000377
2387.3599,-0.000396
2389.2236,-0.000372
2391.0872,-0.000337
2392.9509,-0.000507
2394.8146,-0.000630
2396.6782,-0.000401
2398.5419,-0.000367
2400.4056,-0.000659
2402.2692,-0.000541
2404.1329,-0.000552
2405.9966,-0.000770
2407.8602,-0.000989
2409.7239,-0.001007
2411.5876,-0.000843
2413.4512,-0.000600
2415.3149,-0.000523
2417.1786,-0.000782
2419.0423,-0.000743
2420.9059,-0.000603
2422.7696,-0.000667
2424.6333,-0.000321
2426.4969,-0.000351
2428.3606,-0.000461
2430.2243,-0.000713
2432.0879,-0.000662
2433.9516,-0.000363
2435.8153,-0.000305
2437.6789,-0.000562
2439.5426,-0.000446
2441.4063,-0.000180
2443.2700,-0.000530
2445.1336,-0.000919
2446.9973,-0.000907
2448.8610,-0.000719
2450.7246,-0.000474
2452.5883,-0.000625
2454.4520,-0.000463
2456.3156,-0.000286
2458.1793,-0.000389
2460.0430,-0.000653
2461.9066,-0.000558
2463.7703,-0.000257
2465.6340,-0.000591
2467.4976,-0.000897
2469.3613,-0.000838
2471.2250,-0.000954
2473.0887,-0.000669
2474.9523,-0.000240
2476.8160,-0.000277
2478.6797,-0.000767
2480.5433,-0.001050
2482.4070,-0.001095
2484.2707,-0.001141
2486.1343,-0.000659
2487.9980,-0.000275
2489.8617,-0.000485
2491.7253,-0.000592
2493.5890,-0.000279
2495.4527,-0.000215
2497.3164,-0.000612
2499.1800,-0.000681
2501.0437,-0.000603
2502.9074,-0.000207
2504.7710,0.000143
2506.6347,-0.000384
2508.4984,-0.001030
2510.3620,-0.000648
2512.2257,-0.000110
2514.0894,-0.000102
2515.9530,-0.000366
2517.8167,-0.000551
2519.6804,-0.000625
2521.5440,-0.000397
2523.4077,-0.000118
2525.2714,-0.000382
2527.1351,-0.000664
2528.9987,-0.000508
2530.8624,-0.000475
2532.7261,-0.000258
2534.5897,-0.000266
2536.4534,-0.000624
2538.3171,-0.000704
2540.1807,-0.000503
2542.0444,-0.000320
2543.9081,-0.000320
2545.7717,-0.000862
2547.6354,-0.001076
2549.4991,-0.000712
2551.3627,-0.000385
2553.2264,-0.000436
2555.0901,-0.000406
2556.9538,-0.000549
2558.8174,-0.000737
2560.6811,-0.000605
2562.5448,-0.000312
2564.4084,-0.000320
2566.2721,-0.000535
2568.1358,-0.000849
2569.9994,-0.000905
2571.8631,-0.000557
2573.7268,-0.000731
2575.5904,-0.000929
2577.4541,-0.000643
2579.3178,-0.000624
2581.1815,-0.000515
2583.0451,-0.000410
2584.9088,-0.000153
2586.7725,-0.000056
