Wavenumber,Intensity
650.4205,0.002480
652.2841,0.002246
654.1478,0.002493
656.0115,0.002172
657.8751,0.001694
659.7388,0.003388
661.6025,0.002880
663.4661,0.000718
665.3298,0.001639
667.1935,0.005118
669.0571,0.004456
670.9208,0.002334
672.7845,0.001930
674.6481,0.002218
676.5118,0.002505
678.3755,0.002300
680.2392,0.002532
682.1028,0.002706
683.9665,0.003071
685.8302,0.002936
687.6938,0.002468
689.5575,0.003184
691.4212,0.003946
693.2848,0.004571
695.1485,0.005028
697.0122,0.004376
698.8758,0.002825
700.7395,0.001635
702.6032,0.001699
704.4669,0.002205
706.3305,0.002179
708.1942,0.002097
710.0579,0.001664
711.9215,0.001282
713.7852,0.001457
715.6489,0.002019
717.5125,0.002456
719.3762,0.002299
721.2399,0.001772
723.1035,0.001474
724.9672,0.001622
726.8309,0.001931
728.6945,0.001966
730.5582,0.001764
732.4219,0.001671
734.2856,0.001995
736.1492,0.002223
738.0129,0.002142
739.8766,0.002016
741.7402,0.001817
743.6039,0.001798
745.4676,0.001951
747.3312,0.002330
749.1949,0.002486
751.0586,0.002221
752.9222,0.002064
754.7859,0.002365
756.6496,0.002306
758.5132,0.002379
760.3769,0.002546
762.2406,0.002827
764.1043,0.003335
765.9679,0.003568
767.8316,0.003836
769.6953,0.004354
771.5589,0.005104
773.4226,0.006211
775.2863,0.007382
777.1499,0.008625
779.0136,0.009779
780.8773,0.009940
782.7409,0.009231
784.6046,0.008294
786.4683,0.007303
788.3320,0.006810
790.1956,0.006991
792.0593,0.007603
793.9230,0.008641
795.7866,0.009938
797.6503,0.010707
799.5140,0.010375
801.3776,0.009485
803.2413,0.008258
805.1050,0.006554
806.9686,0.005105
808.8323,0.004097
810.6960,0.002958
812.5596,0.002024
814.4233,0.001826
816.2870,0.001612
818.1507,0.001334
820.0143,0.001096
821.8780,0.000838
823.7417,0.000837
825.6053,0.001096
827.4690,0.001179
829.3327,0.000988
831.1963,0.000885
833.0600,0.000820
834.9237,0.000930
836.7873,0.001018
838.6510,0.000857
840.5147,0.000861
842.3784,0.000964
844.2420,0.001020
846.1057,0.000966
847.9694,0.000943
849.8330,0.001109
851.6967,0.001345
853.5604,0.001321
855.4240,0.001183
857.2877,0.001156
859.1514,0.001087
861.0150,0.001108
862.8787,0.001156
864.7424,0.001181
866.6060,0.001255
868.4697,0.001176
870.3334,0.001098
872.1971,0.001260
874.0607,0.001437
875.9244,0.001472
877.7881,0.001517
879.6517,0.001471
881.5154,0.001391
883.3791,0.001476
885.2427,0.001534
887.1064,0.001417
888.9701,0.001306
890.8337,0.001324
892.6974,0.001504
894.5611,0.001707
896.4247,0.001694
898.2884,0.001519
900.1521,0.001551
902.0158,0.001731
903.8794,0.001889
905.7431,0.001840
907.6068,0.001569
909.4704,0.001564
911.3341,0.001763
913.1978,0.001916
915.0614,0.002067
916.9251,0.002029
918.7888,0.002001
920.6524,0.001985
922.5161,0.001884
924.3798,0.001883
926.2435,0.002101
928.1071,0.002352
929.9708,0.002452
931.8345,0.002377
933.6981,0.002314
935.5618,0.002398
937.4255,0.002536
939.2891,0.002717
941.1528,0.002855
943.0165,0.002843
944.8801,0.002948
946.7438,0.003091
948.6075,0.003117
950.4711,0.003191
952.3348,0.003235
954.1985,0.003173
956.0622,0.003146
957.9258,0.003171
959.7895,0.003194
961.6532,0.003228
963.5168,0.003377
965.3805,0.003552
967.2442,0.003587
969.1078,0.003585
970.9715,0.003620
972.8352,0.003792
974.6988,0.003951
976.5625,0.003945
978.4262,0.004065
980.2899,0.004251
982.1535,0.004374
984.0172,0.004519
985.8809,0.004663
987.7445,0.004786
989.6082,0.004915
991.4719,0.005031
993.3355,0.005198
995.1992,0.005413
997.0629,0.005585
998.9265,0.005721
1000.7902,0.005876
1002.6539,0.006108
1004.5175,0.006317
1006.3812,0.006420
1008.2449,0.006521
1010.1086,0.006668
1011.9722,0.006848
1013.8359,0.007038
1015.6996,0.007270
1017.5632,0.007538
1019.4269,0.007895
1021.2906,0.008215
1023.1542,0.008449
1025.0179,0.008675
1026.8816,0.008967
1028.7452,0.009379
1030.6089,0.009844
1032.4726,0.010258
1034.3362,0.010647
1036.1999,0.011125
1038.0636,0.011615
1039.9273,0.012039
1041.7909,0.012505
1043.6546,0.013053
1045.5183,0.013613
1047.3819,0.014167
1049.2456,0.014802
1051.1093,0.015503
1052.9729,0.016213
1054.8366,0.016921
1056.7003,0.017772
1058.5639,0.018787
1060.4276,0.019811
1062.2913,0.020805
1064.1550,0.021840
1066.0186,0.022882
1067.8823,0.023726
1069.7460,0.024510
1071.6096,0.025414
1073.4733,0.026386
1075.3370,0.027478
1077.2006,0.028370
1079.0643,0.028932
1080.9280,0.029310
1082.7916,0.029402
1084.6553,0.029315
1086.5190,0.029152
1088.3826,0.028778
1090.2463,0.028241
1092.1100,0.027616
1093.9737,0.026988
1095.8373,0.026332
1097.7010,0.025631
1099.5647,0.025005
1101.4283,0.024310
1103.2920,0.023510
1105.1557,0.022767
1107.0193,0.022071
1108.8830,0.021413
1110.7467,0.020770
1112.6103,0.020112
1114.4740,0.019435
1116.3377,0.018796
1118.2014,0.018260
1120.0650,0.017787
1121.9287,0.017178
1123.7924,0.016480
1125.6560,0.015855
1127.5197,0.015350
1129.3834,0.014893
1131.2470,0.014432
1133.1107,0.013950
1134.9744,0.013451
1136.8380,0.012985
1138.7017,0.012621
1140.5654,0.012248
1142.4290,0.011856
1144.2927,0.011507
1146.1564,0.011136
1148.0201,0.010801
1149.8837,0.010563
1151.7474,0.010334
1153.6111,0.010103
1155.4747,0.009959
1157.3384,0.009958
1159.2021,0.010149
1161.0657,0.010549
1162.9294,0.010786
1164.7931,0.010684
1166.6567,0.010397
1168.5204,0.010022
1170.3841,0.009600
1172.2477,0.009252
1174.1114,0.008970
1175.9751,0.008690
1177.8388,0.008513
1179.7024,0.008448
1181.5661,0.008376
1183.4298,0.008278
1185.2934,0.008223
1187.1571,0.008150
1189.0208,0.008091
1190.8844,0.008140
1192.7481,0.008099
1194.6118,0.007852
1196.4754,0.007654
1198.3391,0.007540
1200.2028,0.007328
1202.0665,0.007096
1203.9301,0.006917
1205.7938,0.006626
1207.6575,0.006277
1209.5211,0.005953
1211.3848,0.005593
1213.2485,0.005161
1215.1121,0.004646
1216.9758,0.004218
1218.8395,0.003876
1220.7031,0.003388
1222.5668,0.002915
1224.4305,0.002672
1226.2941,0.002503
1228.1578,0.002269
1230.0215,0.002114
1231.8852,0.002076
1233.7488,0.001903
1235.6125,0.001663
1237.4762,0.001612
1239.3398,0.001561
1241.2035,0.001400
1243.0672,0.001367
1244.9308,0.001370
1246.7945,0.001302
1248.6582,0.001236
1250.5218,0.001181
1252.3855,0.001046
1254.2492,0.000950
1256.1129,0.000925
1257.9765,0.000893
1259.8402,0.000853
1261.7039,0.000917
1263.5675,0.000903
1265.4312,0.000805
1267.2949,0.000798
1269.1585,0.000849
1271.0222,0.000872
1272.8859,0.000849
1274.7495,0.000757
1276.6132,0.000660
1278.4769,0.000636
1280.3405,0.000644
1282.2042,0.000637
1284.0679,0.000535
1285.9316,0.000453
1287.7952,0.000432
1289.6589,0.000462
1291.5226,0.000468
1293.3862,0.000406
1295.2499,0.000430
1297.1136,0.000463
1298.9772,0.000424
1300.8409,0.000370
1302.7046,0.000329
1304.5682,0.000309
1306.4319,0.000333
1308.2956,0.000319
1310.1592,0.000318
1312.0229,0.000326
1313.8866,0.000361
1315.7503,0.000493
1317.6139,0.000533
1319.4776,0.000467
1321.3413,0.000363
1323.2049,0.000243
1325.0686,0.000135
1326.9323,0.000151
1328.7959,0.000304
1330.6596,0.000345
1332.5233,0.000203
1334.3869,0.000164
1336.2506,0.000296
1338.1143,0.000578
1339.9780,0.000669
1341.8416,0.000505
1343.7053,0.000257
1345.5690,0.000233
1347.4326,0.000287
1349.2963,0.000225
1351.1600,0.000176
1353.0236,0.000115
1354.8873,0.000220
1356.7510,0.000274
1358.6146,0.000212
1360.4783,0.000307
1362.3420,0.000377
1364.2056,0.000377
1366.0693,0.000392
1367.9330,0.000333
1369.7967,0.000284
1371.6603,0.000231
1373.5240,0.000424
1375.3877,0.000610
1377.2513,0.000444
1379.1150,0.000117
1380.9787,0.000220
1382.8423,0.000079
1384.7060,0.000130
1386.5697,0.000188
1388.4333,0.000268
1390.2970,0.000224
1392.1607,0.000019
1394.0244,0.000063
1395.8880,0.000480
1397.7517,0.000609
1399.6154,0.000313
1401.4790,0.000530
1403.3427,0.000280
1405.2064,0.000332
1407.0700,0.000344
1408.9337,0.000148
1410.7974,0.000125
1412.6610,0.000277
1414.5247,0.000116
1416.3884,0.000090
1418.2520,0.000237
1420.1157,0.000723
1421.9794,0.000960
1423.8431,0.000395
1425.7067,0.000468
1427.5704,0.000319
1429.4341,0.000304
1431.2977,0.000490
1433.1614,0.000253
1435.0251,0.000191
1436.8887,0.000413
1438.7524,0.000870
1440.6161,0.000299
1442.4797,0.000080
1444.3434,0.000125
1446.2071,0.000191
1448.0707,0.000501
1449.9344,0.000714
1451.7981,0.000402
1453.6618,0.000347
1455.5254,0.000351
1457.3891,0.000709
1459.2528,0.001519
1461.1164,0.000587
1462.9801,0.000065
1464.8438,0.000178
1466.7074,0.000800
1468.5711,0.000164
1470.4348,-0.000163
1472.2984,-0.000150
1474.1621,0.001075
1476.0258,0.000936
1477.8895,0.000714
1479.7531,0.000603
1481.6168,0.000340
1483.4805,0.000411
1485.3441,0.000212
1487.2078,0.000229
1489.0715,0.000926
1490.9351,0.001096
1492.7988,0.000837
1494.6625,0.000260
1496.5261,0.000294
1498.3898,0.000920
1500.2535,0.000654
1502.1171,0.000114
1503.9808,-0.000236
1505.8445,-0.000184
1507.7082,0.001820
1509.5718,0.002096
1511.4355,0.000990
1513.2992,0.000809
1515.1628,0.000724
1517.0265,0.000558
1518.8902,0.001141
1520.7538,0.000428
1522.6175,0.000681
1524.4812,0.000902
1526.3448,0.000828
1528.2085,0.001141
1530.0722,0.000551
1531.9359,0.000745
1533.7995,0.001111
1535.6632,0.001241
1537.5269,-0.000248
1539.3905,-0.000685
1541.2542,0.001385
1543.1179,0.001631
1544.9815,0.001094
1546.8452,0.001234
1548.7089,0.000702
1550.5725,0.000418
1552.4362,0.000695
1554.2999,0.000068
1556.1635,0.000438
1558.0272,-0.000106
1559.8909,0.001543
1561.7546,0.001984
1563.6182,0.000522
1565.4819,0.000370
1567.3456,0.000767
1569.2092,0.000685
1571.0729,0.001113
1572.9366,0.000470
1574.8002,-0.000453
1576.6639,0.000182
1578.5276,0.001183
1580.3912,0.000454
1582.2549,0.000344
1584.1186,0.000473
1585.9822,0.000393
1587.8459,0.000287
1589.7096,0.000232
1591.5733,0.000401
1593.4369,0.000341
1595.3006,0.000485
1597.1643,0.000522
1599.0279,0.000447
1600.8916,0.000412
1602.7553,0.000504
1604.6189,0.000332
1606.4826,0.000400
1608.3463,0.000533
1610.2099,0.000736
1612.0736,0.000470
1613.9373,0.000261
1615.8010,-0.000232
1617.6646,0.000832
1619.5283,0.001113
1621.3920,0.000170
1623.2556,0.000352
1625.1193,0.001156
1626.9830,0.000624
1628.8466,0.000675
1630.7103,0.000786
1632.5740,0.000214
1634.4376,-0.000348
1636.3013,0.000771
1638.1650,0.001529
1640.0286,0.000618
1641.8923,0.000567
1643.7560,0.000327
1645.6197,0.000212
1647.4833,0.001297
1649.3470,0.001307
1651.2107,-0.000068
1653.0743,-0.000011
1654.9380,0.002420
1656.8017,0.001162
1658.6653,0.000223
1660.5290,0.000236
1662.3927,0.000267
1664.2563,0.000931
1666.1200,0.000665
1667.9837,0.000285
1669.8474,0.000595
1671.7110,0.001021
1673.5747,0.000707
1675.4384,0.000766
1677.3020,0.001336
1679.1657,0.000469
1681.0294,0.000593
1682.8930,0.000523
1684.7567,0.001007
1686.6204,0.001920
1688.4840,0.000793
1690.3477,0.000821
1692.2114,0.000499
1694.0750,0.000001
1695.9387,0.000279
1697.8024,0.001884
1699.6661,0.000064
1701.5297,0.001791
1703.3934,0.001541
1705.2571,0.000319
1707.1207,0.000848
1708.9844,0.000738
1710.8481,0.000682
1712.7117,0.000625
1714.5754,0.000555
1716.4391,0.000683
1718.3027,0.000735
1720.1664,0.001367
1722.0301,0.000644
1723.8937,0.000492
1725.7574,0.000538
1727.6211,0.000514
1729.4848,0.000415
1731.3484,0.000626
1733.2121,0.000351
1735.0758,0.001543
1736.9394,0.001568
1738.8031,0.000125
1740.6668,0.000871
1742.5304,0.000870
1744.3941,0.000764
1746.2578,0.000593
1748.1214,0.000469
1749.9851,0.001219
1751.8488,0.001627
1753.7125,0.001433
1755.5761,0.000553
1757.4398,0.000819
1759.3035,0.000922
1761.1671,0.000409
1763.0308,0.001016
1764.8945,0.000930
1766.7581,0.000318
1768.6218,0.000539
1770.4855,0.000697
1772.3491,0.000400
1774.2128,0.001092
1776.0765,0.000597
1777.9401,0.000653
1779.8038,0.000535
1781.6675,0.000865
1783.5312,0.000801
1785.3948,0.000548
1787.2585,0.000745
1789.1222,0.000587
1790.9858,0.000368
1792.8495,0.001043
1794.7132,0.001383
1796.5768,0.000801
1798.4405,0.000712
1800.3042,0.000705
1802.1678,0.000945
1804.0315,0.000974
1805.8952,0.000558
1807.7589,0.000428
1809.6225,0.000559
1811.4862,0.000737
1813.3499,0.000738
1815.2135,0.000500
1817.0772,0.000452
1818.9409,0.000492
1820.8045,0.000463
1822.6682,0.000509
1824.5319,0.000596
1826.3955,0.001092
1828.2592,0.000855
1830.1229,0.000792
1831.9865,0.001216
1833.8502,0.000673
1835.7139,0.000568
1837.5776,0.000441
1839.4412,0.000455
1841.3049,0.000345
1843.1686,0.000349
1845.0322,0.001315
1846.8959,0.001529
1848.7596,0.000837
1850.6232,0.001013
1852.4869,0.000921
1854.3506,0.000786
1856.2142,0.000684
1858.0779,0.000803
1859.9416,0.000614
1861.8052,0.000617
1863.6689,0.000586
1865.5326,0.000680
1867.3963,0.000678
1869.2599,0.000927
1871.1236,0.001067
1872.9873,0.000920
1874.8509,0.000759
1876.7146,0.000895
1878.5783,0.000874
1880.4419,0.000990
1882.3056,0.000920
1884.1693,0.000774
1886.0329,0.000886
1887.8966,0.000817
1889.7603,0.000840
1891.6240,0.001156
1893.4876,0.000823
1895.3513,0.000832
1897.2150,0.000749
1899.0786,0.000739
1900.9423,0.000618
1902.8060,0.000706
1904.6696,0.000658
1906.5333,0.000670
1908.3970,0.000711
1910.2606,0.000721
1912.1243,0.000743
1913.9880,0.000858
1915.8516,0.000736
1917.7153,0.000806
1919.5790,0.001074
1921.4427,0.000886
1923.3063,0.001167
1925.1700,0.000919
1927.0337,0.000481
1928.8973,0.000801
1930.7610,0.000909
1932.6247,0.000526
1934.4883,0.000355
1936.3520,0.000898
1938.2157,0.001031
1940.0793,0.000464
1941.9430,0.000092
1943.8067,0.001010
1945.6704,0.001259
1947.5340,0.000806
1949.3977,0.000351
1951.2614,0.000431
1953.1250,0.000410
1954.9887,0.000543
1956.8524,0.000732
1958.7160,0.000808
1960.5797,0.000663
1962.4434,0.000506
1964.3070,0.000461
1966.1707,0.000283
1968.0344,-0.000092
1969.8980,0.000292
1971.7617,0.000893
1973.6254,0.000555
1975.4891,0.000050
1977.3527,0.000800
1979.2164,0.001566
1981.0801,0.001010
1982.9437,0.000434
1984.8074,0.000756
1986.6711,0.000643
1988.5347,0.000900
1990.3984,0.001071
1992.2621,0.000904
1994.1257,0.000634
1995.9894,0.000998
1997.8531,0.001739
1999.7167,0.001831
2001.5804,0.000512
2003.4441,-0.001129
2005.3078,-0.000067
2007.1714,0.001325
2009.0351,0.000647
2010.8988,0.000534
2012.7624,0.000609
2014.6261,0.000265
2016.4898,0.000955
2018.3534,0.002011
2020.2171,0.001827
2022.0808,0.001137
2023.9444,0.001096
2025.8081,0.000551
2027.6718,-0.000580
2029.5355,-0.000017
2031.3991,0.000357
2033.2628,0.000182
2035.1265,0.000773
2036.9901,0.001112
2038.8538,0.000961
2040.7175,0.001021
2042.5811,0.001067
2044.4448,0.000558
2046.3085,0.000191
2048.1721,0.000719
2050.0358,0.001467
2051.8995,0.001865
2053.7631,0.001792
2055.6268,0.001551
2057.4905,0.000981
2059.3542,0.000872
2061.2178,0.000941
2063.0815,0.000759
2064.9452,0.000452
2066.8088,0.000292
2068.6725,0.000084
2070.5362,0.000723
2072.3998,0.001366
2074.2635,0.001272
2076.1272,0.000960
2077.9908,0.001024
2079.8545,0.000825
2081.7182,0.000734
2083.5819,0.000647
2085.4455,0.000635
2087.3092,0.000813
2089.1729,0.000562
2091.0365,0.000523
2092.9002,0.000524
2094.7639,0.000171
2096.6275,0.000614
2098.4912,0.000977
2100.3549,0.001015
2102.2185,0.000848
2104.0822,0.000668
2105.9459,0.000622
2107.8095,0.000873
2109.6732,0.001024
2111.5369,0.000803
2113.4006,0.000754
2115.2642,0.001002
2117.1279,0.000876
2118.9916,0.000544
2120.8552,0.000309
2122.7189,0.000618
2124.5826,0.000761
2126.4462,0.000648
2128.3099,0.000595
2130.1736,0.000775
2132.0372,0.000600
2133.9009,0.000446
2135.7646,0.000049
2137.6282,-0.000117
2139.4919,0.000090
2141.3556,0.000605
2143.2193,0.000603
2145.0829,0.000689
2146.9466,0.000712
2148.8103,0.000118
2150.6739,-0.000586
2152.5376,-0.000309
2154.4013,-0.000032
2156.2649,0.000032
2158.1286,-0.000066
2159.9923,-0.000231
2161.8559,0.000270
2163.7196,0.000427
2165.5833,0.000901
2167.4470,0.001706
2169.3106,0.001703
2171.1743,0.002033
2173.0380,0.001040
2174.9016,0.000925
2176.7653,0.001065
2178.6290,0.001511
2180.4926,0.001954
2182.3563,0.000700
2184.2200,-0.000379
2186.0836,0.000345
2187.9473,0.000584
2189.8110,0.000645
2191.6746,0.000621
2193.5383,0.000284
2195.4020,0.000335
2197.2657,0.000710
2199.1293,0.000624
2200.9930,0.000798
2202.8567,0.001509
2204.7203,0.001510
2206.5840,0.000666
2208.4477,0.000185
2210.3113,0.000686
2212.1750,0.001304
2214.0387,0.001105
2215.9023,0.001004
2217.7660,0.000784
2219.6297,0.000904
2221.4934,0.001406
2223.3570,0.001107
2225.2207,0.000477
2227.0844,0.000403
2228.9480,0.000616
2230.8117,0.001171
2232.6754,0.001390
2234.5390,0.000796
2236.4027,0.000581
2238.2664,0.000836
2240.1300,0.000886
2241.9937,0.000834
2243.8574,0.001231
2245.7210,0.001667
2247.5847,0.001507
2249.4484,0.001063
2251.3121,0.000644
2253.1757,0.000513
2255.0394,0.000677
2256.9031,0.001033
2258.7667,0.001210
2260.6304,0.001092
2262.4941,0.000881
2264.3577,0.000861
2266.2214,0.000786
2268.0851,0.000629
2269.9487,0.000568
2271.8124,0.000735
2273.6761,0.000936
2275.5397,0.001002
2277.4034,0.000797
2279.2671,0.000883
2281.1308,0.001232
2282.9944,0.001288
2284.8581,0.001098
2286.7218,0.001137
2288.5854,0.000943
2290.4491,0.001027
2292.3128,0.001502
2294.1764,0.001660
2296.0401,0.001283
2297.9038,0.001343
2299.7674,0.001643
2301.6311,0.001455
2303.4948,0.001458
2305.3585,0.001839
2307.2221,0.002152
2309.0858,0.002330
2310.9495,0.002410
2312.8131,0.002593
2314.6768,0.002731
2316.5405,0.002889
2318.4041,0.002958
2320.2678,0.003190
2322.1315,0.003587
2323.9951,0.003994
2325.8588,0.004358
2327.7225,0.004427
2329.5861,0.004187
2331.4498,0.004158
2333.3135,0.004073
2335.1772,0.004197
2337.0408,0.004534
2338.9045,0.004420
2340.7682,0.004442
2342.6318,0.004757
2344.4955,0.004600
2346.3592,0.003932
2348.2228,0.002778
2350.0865,0.002462
2351.9502,0.003212
2353.8138,0.003437
2355.6775,0.004201
2357.5412,0.005716
2359.4049,0.006119
2361.2685,0.005778
2363.1322,0.005865
2364.9959,0.005970
2366.8595,0.005260
2368.7232,0.004406
2370.5869,0.004220
2372.4505,0.004352
2374.3142,0.003722
2376.1779,0.003052
2378.0415,0.002425
2379.9052,0.001822
2381.7689,0.001504
2383.6325,0.001300
2385.4962,0.000892
2387.3599,0.000682
2389.2236,0.000588
2391.0872,0.000610
2392.9509,0.000725
2394.8146,0.000915
2396.6782,0.000887
2398.5419,0.000593
2400.4056,0.000367
2402.2692,0.000448
2404.1329,0.000385
2405.9966,0.000322
2407.8602,0.000386
2409.7239,0.000368
2411.5876,0.000614
2413.4512,0.000976
2415.3149,0.000753
2417.1786,0.000243
2419.0423,0.000340
2420.9059,0.000745
2422.7696,0.000643
2424.6333,0.000579
2426.4969,0.000384
2428.3606,0.000559
2430.2243,0.000867
2432.0879,0.000788
2433.9516,0.000579
2435.8153,0.000635
2437.6789,0.000539
2439.5426,0.000528
2441.4063,0.000807
2443.2700,0.000580
2445.1336,0.000343
2446.9973,0.000348
2448.8610,0.000620
2450.7246,0.000632
2452.5883,0.000306
2454.4520,0.000351
2456.3156,0.000551
2458.1793,0.000794
2460.0430,0.000853
2461.9066,0.000958
2463.7703,0.000885
2465.6340,0.000892
2467.4976,0.000756
2469.3613,0.000543
2471.2250,0.000366
2473.0887,0.000501
2474.9523,0.000687
2476.8160,0.000786
2478.6797,0.000704
2480.5433,0.000482
2482.4070,0.000444
2484.2707,0.000226
2486.1343,0.000327
2487.9980,0.000596
2489.8617,0.000631
2491.7253,0.000931
2493.5890,0.000980
2495.4527,0.000771
2497.3164,0.000593
2499.1800,0.000477
2501.0437,0.000531
2502.9074,0.000831
2504.7710,0.001011
2506.6347,0.001104
2508.4984,0.000924
2510.3620,0.000924
2512.2257,0.000786
2514.0894,0.000713
2515.9530,0.000799
2517.8167,0.000560
2519.6804,0.000698
2521.5440,0.000866
2523.4077,0.000725
2525.2714,0.000501
2527.1351,0.000718
2528.9987,0.001128
2530.8624,0.001141
2532.7261,0.001271
2534.5897,0.000868
2536.4534,0.000463
2538.3171,0.000587
2540.1807,0.000689
2542.0444,0.000904
2543.9081,0.000896
2545.7717,0.000299
2547.6354,0.000097
2549.4991,0.000439
2551.3627,0.001119
2553.2264,0.001178
2555.0901,0.000974
2556.9538,0.000942
2558.8174,0.000952
2560.6811,0.001014
2562.5448,0.001057
2564.4084,0.000765
2566.2721,0.000301
2568.1358,-0.000134
2569.9994,-0.000069
2571.8631,0.000405
2573.7268,0.000417
2575.5904,0.000262
2577.4541,0.000816
2579.3178,0.001002
2581.1815,0.000755
2583.0451,0.000700
2584.9088,0.000910
2586.7725,0.000891
2588.6361,0.001019
2590.4998,0.000969
2592.3635,0.000562
2594.2271,0.000462
2596.0908,0.000686
2597.9545,0.000735
2599.8181,0.000699
2601.6818,0.000815
2603.5455,0.000710
2605.4091,0.000644
2607.2728,0.000698
2609.1365,0.000393
2611.0002,0.000468
2612.8638,0.000895
2614.7275,0.001017
2616.5912,0.000690
2618.4548,0.000412
2620.3185,0.000644
2622.1822,0.001117
2624.0458,0.000920
