Wavenumber,Intensity
650.4205,0.001610
652.2841,0.001641
654.1478,0.001830
656.0115,0.001018
657.8751,0.000801
659.7388,0.002341
661.6025,0.001446
663.4661,0.000667
665.3298,0.002106
667.1935,0.003933
669.0571,0.003547
670.9208,0.001623
672.7845,0.001323
674.6481,0.002681
676.5118,0.002770
678.3755,0.002088
680.2392,0.002146
682.1028,0.002481
683.9665,0.002912
685.8302,0.002776
687.6938,0.003088
689.5575,0.004046
691.4212,0.003686
693.2848,0.003148
695.1485,0.002916
697.0122,0.002550
698.8758,0.002189
700.7395,0.001340
702.6032,0.001216
704.4669,0.001956
706.3305,0.001960
708.1942,0.001588
710.0579,0.001124
711.9215,0.000802
713.7852,0.001341
715.6489,0.001904
717.5125,0.001790
719.3762,0.001490
721.2399,0.001384
723.1035,0.001028
724.9672,0.000815
726.8309,0.000880
728.6945,0.001198
730.5582,0.001554
732.4219,0.001720
734.2856,0.001976
736.1492,0.001988
738.0129,0.001599
739.8766,0.001566
741.7402,0.001756
743.6039,0.001895
745.4676,0.001875
747.3312,0.002100
749.1949,0.002403
751.0586,0.002214
752.9222,0.001791
754.7859,0.001881
756.6496,0.002041
758.5132,0.001956
760.3769,0.001946
762.2406,0.002412
764.1043,0.002928
765.9679,0.003171
767.8316,0.003266
769.6953,0.003387
771.5589,0.003763
773.4226,0.004378
775.2863,0.005038
777.1499,0.005794
779.0136,0.006274
780.8773,0.006096
782.7409,0.005469
784.6046,0.004797
786.4683,0.004346
788.3320,0.004083
790.1956,0.004126
792.0593,0.004429
793.9230,0.004964
795.7866,0.005608
797.6503,0.005829
799.5140,0.005493
801.3776,0.004843
803.2413,0.003968
805.1050,0.003131
806.9686,0.002597
808.8323,0.002262
810.6960,0.001824
812.5596,0.001412
814.4233,0.001263
816.2870,0.000971
818.1507,0.000796
820.0143,0.000627
821.8780,0.000436
823.7417,0.000607
825.6053,0.000993
827.4690,0.001100
829.3327,0.000985
831.1963,0.000929
833.0600,0.000839
834.9237,0.000818
836.7873,0.000807
838.6510,0.000609
840.5147,0.000635
842.3784,0.000731
844.2420,0.000740
846.1057,0.000840
847.9694,0.000797
849.8330,0.000792
851.6967,0.001090
853.5604,0.001202
855.4240,0.000953
857.2877,0.000871
859.1514,0.000964
861.0150,0.001034
862.8787,0.001039
864.7424,0.001076
866.6060,0.001240
868.4697,0.001216
870.3334,0.000959
872.1971,0.000922
874.0607,0.001098
875.9244,0.001188
877.7881,0.001184
879.6517,0.001205
881.5154,0.001254
883.3791,0.001410
885.2427,0.001500
887.1064,0.001414
888.9701,0.001358
890.8337,0.001361
892.6974,0.001437
894.5611,0.001509
896.4247,0.001425
898.2884,0.001276
900.1521,0.001361
902.0158,0.001603
903.8794,0.001763
905.7431,0.001678
907.6068,0.001341
909.4704,0.001377
911.3341,0.001757
913.1978,0.001961
915.0614,0.002021
916.9251,0.001930
918.7888,0.001862
920.6524,0.001871
922.5161,0.001828
924.3798,0.001884
926.2435,0.002009
928.1071,0.002088
929.9708,0.002139
931.8345,0.002117
933.6981,0.002137
935.5618,0.002314
937.4255,0.002410
939.2891,0.002426
941.1528,0.002451
943.0165,0.002445
944.8801,0.002652
946.7438,0.002844
948.6075,0.002747
950.4711,0.002646
952.3348,0.002661
954.1985,0.002721
956.0622,0.002816
957.9258,0.002835
959.7895,0.002817
961.6532,0.002845
963.5168,0.002871
965.3805,0.002862
967.2442,0.002941
969.1078,0.003067
970.9715,0.003088
972.8352,0.003096
974.6988,0.003160
976.5625,0.003262
978.4262,0.003363
980.2899,0.003392
982.1535,0.003478
984.0172,0.003597
985.8809,0.003701
987.7445,0.003865
989.6082,0.003993
991.4719,0.004013
993.3355,0.004059
995.1992,0.004230
997.0629,0.004361
998.9265,0.004404
1000.7902,0.004478
1002.6539,0.004623
1004.5175,0.004750
1006.3812,0.004805
1008.2449,0.004858
1010.1086,0.004987
1011.9722,0.005157
1013.8359,0.005199
1015.6996,0.005259
1017.5632,0.005429
1019.4269,0.005641
1021.2906,0.005802
1023.1542,0.005884
1025.0179,0.005918
1026.8816,0.006053
1028.7452,0.006301
1030.6089,0.006588
1032.4726,0.006812
1034.3362,0.006990
1036.1999,0.007269
1038.0636,0.007536
1039.9273,0.007634
1041.7909,0.007707
1043.6546,0.007959
1045.5183,0.008238
1047.3819,0.008491
1049.2456,0.008830
1051.1093,0.009159
1052.9729,0.009442
1054.8366,0.009684
1056.7003,0.009996
1058.5639,0.010370
1060.4276,0.010741
1062.2913,0.011147
1064.1550,0.011495
1066.0186,0.011833
1067.8823,0.012157
1069.7460,0.012417
1071.6096,0.012728
1073.4733,0.013143
1075.3370,0.013537
1077.2006,0.013789
1079.0643,0.014035
1080.9280,0.014199
1082.7916,0.014167
1084.6553,0.014129
1086.5190,0.014040
1088.3826,0.013803
1090.2463,0.013533
1092.1100,0.013272
1093.9737,0.013020
1095.8373,0.012722
1097.7010,0.012385
1099.5647,0.012148
1101.4283,0.011833
1103.2920,0.011363
1105.1557,0.010959
1107.0193,0.010713
1108.8830,0.010532
1110.7467,0.010244
1112.6103,0.009937
1114.4740,0.009693
1116.3377,0.009434
1118.2014,0.009146
1120.0650,0.008855
1121.9287,0.008552
1123.7924,0.008228
1125.6560,0.007940
1127.5197,0.007702
1129.3834,0.007424
1131.2470,0.007156
1133.1107,0.006908
1134.9744,0.006662
1136.8380,0.006458
1138.7017,0.006315
1140.5654,0.006138
1142.4290,0.005907
1144.2927,0.005690
1146.1564,0.005484
1148.0201,0.005308
1149.8837,0.005237
1151.7474,0.005177
1153.6111,0.005077
1155.4747,0.005025
1157.3384,0.005039
1159.2021,0.005094
1161.0657,0.005227
1162.9294,0.005312
1164.7931,0.005232
1166.6567,0.005010
1168.5204,0.004739
1170.3841,0.004522
1172.2477,0.004392
1174.1114,0.004299
1175.9751,0.004220
1177.8388,0.004146
1179.7024,0.004053
1181.5661,0.003966
1183.4298,0.003899
1185.2934,0.003864
1187.1571,0.003832
1189.0208,0.003788
1190.8844,0.003796
1192.7481,0.003747
1194.6118,0.003553
1196.4754,0.003418
1198.3391,0.003392
1200.2028,0.003315
1202.0665,0.003171
1203.9301,0.003048
1205.7938,0.002872
1207.6575,0.002654
1209.5211,0.002487
1211.3848,0.002272
1213.2485,0.001996
1215.1121,0.001788
1216.9758,0.001612
1218.8395,0.001482
1220.7031,0.001324
1222.5668,0.001096
1224.4305,0.001003
1226.2941,0.000956
1228.1578,0.000832
1230.0215,0.000725
1231.8852,0.000713
1233.7488,0.000645
1235.6125,0.000525
1237.4762,0.000521
1239.3398,0.000508
1241.2035,0.000406
1243.0672,0.000354
1244.9308,0.000328
1246.7945,0.000301
1248.6582,0.000366
1250.5218,0.000379
1252.3855,0.000165
1254.2492,0.000088
1256.1129,0.000165
1257.9765,0.000231
1259.8402,0.000282
1261.7039,0.000259
1263.5675,0.000155
1265.4312,0.000048
1267.2949,0.000041
1269.1585,0.000143
1271.0222,0.000175
1272.8859,0.000190
1274.7495,0.000155
1276.6132,-0.000040
1278.4769,-0.000041
1280.3405,0.000083
1282.2042,0.000009
1284.0679,-0.000108
1285.9316,-0.000126
1287.7952,-0.000107
1289.6589,-0.000097
1291.5226,-0.000095
1293.3862,-0.000087
1295.2499,-0.000120
1297.1136,-0.000160
1298.9772,-0.000137
1300.8409,-0.000167
1302.7046,-0.000221
1304.5682,-0.000235
1306.4319,-0.000213
1308.2956,-0.000169
1310.1592,-0.000128
1312.0229,-0.000200
1313.8866,-0.000219
1315.7503,-0.000075
1317.6139,-0.000032
1319.4776,-0.000069
1321.3413,-0.000136
1323.2049,-0.000212
1325.0686,-0.000321
1326.9323,-0.000355
1328.7959,-0.000226
1330.6596,-0.000141
1332.5233,-0.000239
1334.3869,-0.000322
1336.2506,-0.000252
1338.1143,0.000004
1339.9780,0.000147
1341.8416,-0.000019
1343.7053,-0.000290
1345.5690,-0.000262
1347.4326,-0.000160
1349.2963,-0.000196
1351.1600,-0.000249
1353.0236,-0.000294
1354.8873,-0.000264
1356.7510,-0.000302
1358.6146,-0.000311
1360.4783,-0.000133
1362.3420,-0.000044
1364.2056,-0.000076
1366.0693,-0.000149
1367.9330,-0.000245
1369.7967,-0.000194
1371.6603,-0.000188
1373.5240,-0.000058
1375.3877,0.000151
1377.2513,-0.000017
1379.1150,-0.000350
1380.9787,-0.000251
1382.8423,-0.000359
1384.7060,-0.000351
1386.5697,-0.000321
1388.4333,-0.000237
1390.2970,-0.000298
1392.1607,-0.000491
1394.0244,-0.000465
1395.8880,-0.000075
1397.7517,0.000064
1399.6154,-0.000110
1401.4790,0.000110
1403.3427,-0.000217
1405.2064,-0.000175
1407.0700,-0.000100
1408.9337,-0.000349
1410.7974,-0.000387
1412.6610,-0.000203
1414.5247,-0.000380
1416.3884,-0.000520
1418.2520,-0.000390
1420.1157,0.000217
1421.9794,0.000380
1423.8431,-0.000162
1425.7067,-0.000086
1427.5704,-0.000206
1429.4341,-0.000225
1431.2977,-0.000072
1433.1614,-0.000272
1435.0251,-0.000418
1436.8887,-0.000200
1438.7524,0.000324
1440.6161,-0.000262
1442.4797,-0.000486
1444.3434,-0.000411
1446.2071,-0.000391
1448.0707,-0.000114
1449.9344,0.000097
1451.7981,-0.000183
1453.6618,-0.000274
1455.5254,-0.000441
1457.3891,0.000079
1459.2528,0.000969
1461.1164,-0.000012
1462.9801,-0.000457
1464.8438,-0.000239
1466.7074,0.000281
1468.5711,-0.000405
1470.4348,-0.000845
1472.2984,-0.000932
1474.1621,0.000344
1476.0258,0.000404
1477.8895,0.000182
1479.7531,-0.000036
1481.6168,-0.000298
1483.4805,-0.000274
1485.3441,-0.000544
1487.2078,-0.000520
1489.0715,0.000142
1490.9351,0.000364
1492.7988,0.000091
1494.6625,-0.000513
1496.5261,-0.000446
1498.3898,0.000280
1500.2535,0.000125
1502.1171,-0.000481
1503.9808,-0.000942
1505.8445,-0.000916
1507.7082,0.001107
1509.5718,0.001275
1511.4355,0.000186
1513.2992,0.000061
1515.1628,-0.000112
1517.0265,-0.000329
1518.8902,0.000185
1520.7538,-0.000392
1522.6175,0.000055
1524.4812,0.000225
1526.3448,0.000056
1528.2085,0.000368
1530.0722,-0.000177
1531.9359,-0.000138
1533.7995,0.000243
1535.6632,0.000345
1537.5269,-0.001100
1539.3905,-0.001320
1541.2542,0.000626
1543.1179,0.000844
1544.9815,0.000370
1546.8452,0.000479
1548.7089,-0.000022
1550.5725,-0.000364
1552.4362,-0.000275
1554.2999,-0.000860
1556.1635,-0.000605
1558.0272,-0.001071
1559.8909,0.001073
1561.7546,0.001393
1563.6182,-0.000309
1565.4819,-0.000579
1567.3456,-0.000194
1569.2092,-0.000163
1571.0729,0.000410
1572.9366,-0.000099
1574.8002,-0.001028
1576.6639,-0.000456
1578.5276,0.000466
1580.3912,-0.000200
1582.2549,-0.000344
1584.1186,-0.000327
1585.9822,-0.000437
1587.8459,-0.000568
1589.7096,-0.000673
1591.5733,-0.000500
1593.4369,-0.000604
1595.3006,-0.000537
1597.1643,-0.000381
1599.0279,-0.000373
1600.8916,-0.000506
1602.7553,-0.000518
1604.6189,-0.000498
1606.4826,-0.000425
1608.3463,-0.000368
1610.2099,-0.000250
1612.0736,-0.000573
1613.9373,-0.000733
1615.8010,-0.001158
1617.6646,-0.000110
1619.5283,0.000258
1621.3920,-0.000678
1623.2556,-0.000677
1625.1193,0.000184
1626.9830,-0.000172
1628.8466,-0.000165
1630.7103,-0.000017
1632.5740,-0.000519
1634.4376,-0.001186
1636.3013,-0.000074
1638.1650,0.000807
1640.0286,-0.000124
1641.8923,-0.000381
1643.7560,-0.000750
1645.6197,-0.000772
1647.4833,0.000392
1649.3470,0.000324
1651.2107,-0.001073
1653.0743,-0.000952
1654.9380,0.001525
1656.8017,0.000341
1658.6653,-0.000548
1660.5290,-0.000684
1662.3927,-0.000667
1664.2563,0.000243
1666.1200,-0.000100
1667.9837,-0.000865
1669.8474,-0.000631
1671.7110,-0.000061
1673.5747,-0.000326
1675.4384,-0.000206
1677.3020,0.000467
1679.1657,-0.000332
1681.0294,-0.000348
1682.8930,-0.000562
1684.7567,0.000162
1686.6204,0.001030
1688.4840,-0.000199
1690.3477,-0.000123
1692.2114,-0.000411
1694.0750,-0.000973
1695.9387,-0.000628
1697.8024,0.000671
1699.6661,-0.000982
1701.5297,0.000944
1703.3934,0.000535
1705.2571,-0.000810
1707.1207,-0.000261
1708.9844,-0.000297
1710.8481,-0.000423
1712.7117,-0.000431
1714.5754,-0.000474
1716.4391,-0.000289
1718.3027,-0.000027
1720.1664,0.000567
1722.0301,-0.000226
1723.8937,-0.000343
1725.7574,-0.000304
1727.6211,-0.000507
1729.4848,-0.000675
1731.3484,-0.000420
1733.2121,-0.000588
1735.0758,0.000646
1736.9394,0.000442
1738.8031,-0.000937
1740.6668,-0.000118
1742.5304,-0.000108
1744.3941,-0.000329
1746.2578,-0.000367
1748.1214,-0.000290
1749.9851,0.000420
1751.8488,0.000706
1753.7125,0.000276
1755.5761,-0.000642
1757.4398,-0.000323
1759.3035,-0.000268
1761.1671,-0.000672
1763.0308,-0.000051
1764.8945,-0.000180
1766.7581,-0.000842
1768.6218,-0.000596
1770.4855,-0.000425
1772.3491,-0.000565
1774.2128,0.000156
1776.0765,-0.000313
1777.9401,-0.000402
1779.8038,-0.000608
1781.6675,-0.000336
1783.5312,-0.000349
1785.3948,-0.000343
1787.2585,-0.000109
1789.1222,-0.000454
1790.9858,-0.000922
1792.8495,-0.000263
1794.7132,0.000211
1796.5768,-0.000374
1798.4405,-0.000356
1800.3042,-0.000171
1802.1678,-0.000053
1804.0315,-0.000246
1805.8952,-0.000608
1807.7589,-0.000672
1809.6225,-0.000569
1811.4862,-0.000470
1813.3499,-0.000483
1815.2135,-0.000689
1817.0772,-0.000636
1818.9409,-0.000496
1820.8045,-0.000353
1822.6682,-0.000321
1824.5319,-0.000361
1826.3955,0.000000
1828.2592,-0.000449
1830.1229,-0.000608
1831.9865,-0.000117
1833.8502,-0.000610
1835.7139,-0.000760
1837.5776,-0.000697
1839.4412,-0.000610
1841.3049,-0.000622
1843.1686,-0.000785
1845.0322,-0.000033
1846.8959,0.000323
1848.7596,-0.000117
1850.6232,-0.000072
1852.4869,-0.000388
1854.3506,-0.000509
1856.2142,-0.000618
1858.0779,-0.000398
1859.9416,-0.000356
1861.8052,-0.000532
1863.6689,-0.000681
1865.5326,-0.000444
1867.3963,-0.000396
1869.2599,-0.000168
1871.1236,-0.000057
1872.9873,-0.000374
1874.8509,-0.000712
1876.7146,-0.000592
1878.5783,-0.000367
1880.4419,-0.000334
1882.3056,-0.000619
1884.1693,-0.000589
1886.0329,-0.000332
1887.8966,-0.000418
1889.7603,-0.000346
1891.6240,-0.000104
1893.4876,-0.000614
1895.3513,-0.000618
1897.2150,-0.000378
1899.0786,-0.000293
1900.9423,-0.000616
1902.8060,-0.000643
1904.6696,-0.000596
1906.5333,-0.000616
1908.3970,-0.000712
1910.2606,-0.000634
1912.1243,-0.000476
1913.9880,-0.000545
1915.8516,-0.000898
1917.7153,-0.001039
1919.5790,-0.000559
1921.4427,-0.000301
1923.3063,-0.000257
1925.1700,-0.000285
1927.0337,-0.000496
1928.8973,-0.000337
1930.7610,-0.000353
1932.6247,-0.000516
1934.4883,-0.000555
1936.3520,-0.000178
1938.2157,-0.000455
1940.0793,-0.001072
1941.9430,-0.001358
1943.8067,-0.000635
1945.6704,-0.000691
1947.5340,-0.000951
1949.3977,-0.000518
1951.2614,-0.000431
1953.1250,-0.000667
1954.9887,-0.000816
1956.8524,-0.000353
1958.7160,0.000291
1960.5797,0.000233
1962.4434,-0.000649
1964.3070,-0.001318
1966.1707,-0.001704
1968.0344,-0.002122
1969.8980,-0.001407
1971.7617,-0.000373
1973.6254,-0.000828
1975.4891,-0.000811
1977.3527,-0.000156
1979.2164,-0.000316
1981.0801,-0.000726
1982.9437,-0.000758
1984.8074,-0.000193
1986.6711,-0.000359
1988.5347,-0.000083
1990.3984,0.000032
1992.2621,-0.000093
1994.1257,-0.000515
1995.9894,-0.000513
1997.8531,0.000060
1999.7167,0.000249
2001.5804,-0.000730
2003.4441,-0.001735
2005.3078,-0.001399
2007.1714,-0.000758
2009.0351,-0.000858
2010.8988,-0.000849
2012.7624,-0.000906
2014.6261,-0.001205
2016.4898,-0.000426
2018.3534,0.000609
2020.2171,-0.000053
2022.0808,-0.000668
2023.9444,-0.000522
2025.8081,-0.001105
2027.6718,-0.001678
2029.5355,-0.001061
2031.3991,-0.000730
2033.2628,-0.000959
2035.1265,-0.000413
2036.9901,-0.000132
2038.8538,-0.000488
2040.7175,-0.000175
2042.5811,-0.000048
2044.4448,-0.000319
2046.3085,-0.000835
2048.1721,-0.001207
2050.0358,-0.000907
2051.8995,-0.000255
2053.7631,-0.000289
2055.6268,-0.000532
2057.4905,-0.001018
2059.3542,-0.000662
2061.2178,-0.000690
2063.0815,-0.000861
2064.9452,-0.001005
2066.8088,-0.001103
2068.6725,-0.001252
2070.5362,-0.000888
2072.3998,-0.000490
2074.2635,-0.000279
2076.1272,-0.000635
2077.9908,-0.001263
2079.8545,-0.001562
2081.7182,-0.001226
2083.5819,-0.001018
2085.4455,-0.000989
2087.3092,-0.000850
2089.1729,-0.000724
2091.0365,-0.000931
2092.9002,-0.001068
2094.7639,-0.001040
2096.6275,-0.000964
2098.4912,-0.000919
2100.3549,-0.000820
2102.2185,-0.000640
2104.0822,-0.000416
2105.9459,-0.000342
2107.8095,-0.000522
2109.6732,-0.000701
2111.5369,-0.001084
2113.4006,-0.000815
2115.2642,-0.000547
2117.1279,-0.001008
2118.9916,-0.001108
2120.8552,-0.000670
2122.7189,-0.000138
2124.5826,-0.000345
2126.4462,-0.001187
2128.3099,-0.001368
2130.1736,-0.000822
2132.0372,-0.001166
2133.9009,-0.001291
2135.7646,-0.001338
2137.6282,-0.001165
2139.4919,-0.001060
2141.3556,-0.001207
2143.2193,-0.001001
2145.0829,-0.000857
2146.9466,-0.000915
2148.8103,-0.001472
2150.6739,-0.002432
2152.5376,-0.001952
2154.4013,-0.001595
2156.2649,-0.001708
2158.1286,-0.001383
2159.9923,-0.000819
2161.8559,-0.000627
2163.7196,-0.000867
2165.5833,-0.001132
2167.4470,-0.000711
2169.3106,-0.000590
2171.1743,-0.000326
2173.0380,-0.001142
2174.9016,-0.001267
2176.7653,-0.000691
2178.6290,-0.000121
2180.4926,-0.000799
2182.3563,-0.001785
2184.2200,-0.001840
2186.0836,-0.001331
2187.9473,-0.001220
2189.8110,-0.000808
2191.6746,-0.000772
2193.5383,-0.000979
2195.4020,-0.001285
2197.2657,-0.001712
2199.1293,-0.001665
2200.9930,-0.001133
2202.8567,-0.000671
2204.7203,-0.000657
2206.5840,-0.001304
2208.4477,-0.001797
2210.3113,-0.001666
2212.1750,-0.001329
2214.0387,-0.000754
2215.9023,-0.000407
2217.7660,-0.000519
2219.6297,-0.000273
2221.4934,-0.000436
2223.3570,-0.000973
2225.2207,-0.001079
2227.0844,-0.001125
2228.9480,-0.001004
2230.8117,-0.000376
2232.6754,-0.000266
2234.5390,-0.000909
2236.4027,-0.000986
2238.2664,-0.000977
2240.1300,-0.001353
2241.9937,-0.001306
2243.8574,-0.000911
2245.7210,-0.000638
2247.5847,-0.000624
2249.4484,-0.001124
2251.3121,-0.001202
2253.1757,-0.001232
2255.0394,-0.001333
2256.9031,-0.001121
2258.7667,-0.000942
2260.6304,-0.000811
2262.4941,-0.001071
2264.3577,-0.001123
2266.2214,-0.001073
2268.0851,-0.001125
2269.9487,-0.000915
2271.8124,-0.000863
2273.6761,-0.001169
2275.5397,-0.001064
2277.4034,-0.001156
2279.2671,-0.000992
2281.1308,-0.000841
2282.9944,-0.000925
2284.8581,-0.000881
2286.7218,-0.000932
2288.5854,-0.001122
2290.4491,-0.000860
2292.3128,-0.000603
2294.1764,-0.000797
2296.0401,-0.001257
2297.9038,-0.001089
2299.7674,-0.000699
2301.6311,-0.000542
2303.4948,-0.000246
2305.3585,0.000006
2307.2221,-0.000165
2309.0858,-0.000265
2310.9495,0.000062
2312.8131,0.000298
2314.6768,0.000288
2316.5405,0.000559
2318.4041,0.000511
2320.2678,0.000681
2322.1315,0.000930
2323.9951,0.001164
2325.8588,0.001715
2327.7225,0.001866
2329.5861,0.001654
2331.4498,0.001679
2333.3135,0.001732
2335.1772,0.001773
2337.0408,0.001771
2338.9045,0.001695
2340.7682,0.001933
2342.6318,0.002245
2344.4955,0.001961
2346.3592,0.001550
2348.2228,0.000732
2350.0865,0.000391
2351.9502,0.000858
2353.8138,0.000961
2355.6775,0.001804
2357.5412,0.003075
2359.4049,0.003176
2361.2685,0.002850
2363.1322,0.003231
2364.9959,0.003740
2366.8595,0.003076
2368.7232,0.002050
2370.5869,0.001899
2372.4505,0.001809
2374.3142,0.001451
2376.1779,0.001025
2378.0415,0.000296
2379.9052,-0.000230
2381.7689,-0.000493
2383.6325,-0.000779
2385.4962,-0.001198
2387.3599,-0.001402
2389.2236,-0.001279
2391.0872,-0.001219
2392.9509,-0.001350
2394.8146,-0.001337
2396.6782,-0.001318
2398.5419,-0.001444
2400.4056,-0.001548
2402.2692,-0.001572
2404.1329,-0.001613
2405.9966,-0.001576
2407.8602,-0.001667
2409.7239,-0.001671
2411.5876,-0.001446
2413.4512,-0.001161
2415.3149,-0.001041
2417.1786,-0.001438
2419.0423,-0.001661
2420.9059,-0.001563
2422.7696,-0.001473
2424.6333,-0.001097
2426.4969,-0.001152
2428.3606,-0.001029
2430.2243,-0.001148
2432.0879,-0.001546
2433.9516,-0.001696
2435.8153,-0.001455
2437.6789,-0.001468
2439.5426,-0.001764
2441.4063,-0.001534
2443.2700,-0.001494
2445.1336,-0.001656
2446.9973,-0.001322
2448.8610,-0.001058
2450.7246,-0.001032
2452.5883,-0.001394
2454.4520,-0.001537
2456.3156,-0.001229
2458.1793,-0.001485
2460.0430,-0.001759
2461.9066,-0.001264
2463.7703,-0.001079
2465.6340,-0.001248
2467.4976,-0.001440
2469.3613,-0.001423
2471.2250,-0.001474
2473.0887,-0.001256
2474.9523,-0.000964
2476.8160,-0.001030
2478.6797,-0.001469
2480.5433,-0.001616
2482.4070,-0.001495
2484.2707,-0.001680
2486.1343,-0.001602
2487.9980,-0.001428
2489.8617,-0.001577
2491.7253,-0.001469
2493.5890,-0.001166
2495.4527,-0.001406
2497.3164,-0.001786
2499.1800,-0.001854
2501.0437,-0.001675
2502.9074,-0.001309
2504.7710,-0.001139
2506.6347,-0.001337
2508.4984,-0.001491
2510.3620,-0.001307
2512.2257,-0.001133
2514.0894,-0.000922
2515.9530,-0.000880
2517.8167,-0.001297
2519.6804,-0.001318
2521.5440,-0.001341
2523.4077,-0.001401
2525.2714,-0.001354
2527.1351,-0.001301
2528.9987,-0.000973
2530.8624,-0.000797
2532.7261,-0.001003
2534.5897,-0.001263
2536.4534,-0.001375
2538.3171,-0.001436
2540.1807,-0.001335
2542.0444,-0.001239
2543.9081,-0.001373
2545.7717,-0.001727
2547.6354,-0.001876
2549.4991,-0.001549
2551.3627,-0.000976
2553.2264,-0.000889
2555.0901,-0.001198
2556.9538,-0.001401
2558.8174,-0.001167
2560.6811,-0.001221
2562.5448,-0.001439
2564.4084,-0.001554
2566.2721,-0.001625
2568.1358,-0.001885
