Wavenumber,Intensity
650.4205,0.001237
652.2841,0.001757
654.1478,0.000852
656.0115,0.000478
657.8751,0.000797
659.7388,0.000649
661.6025,0.000837
663.4661,0.001840
665.3298,0.002519
667.1935,0.004030
669.0571,0.003138
670.9208,0.000817
672.7845,0.000983
674.6481,0.001925
676.5118,0.001884
678.3755,0.001311
680.2392,0.001424
682.1028,0.000785
683.9665,0.000597
685.8302,0.001545
687.6938,0.001445
689.5575,0.000797
691.4212,0.000814
693.2848,0.001035
695.1485,0.001539
697.0122,0.001933
698.8758,0.001310
700.7395,0.000375
702.6032,0.000347
704.4669,0.000738
706.3305,0.001013
708.1942,0.000548
710.0579,0.000257
711.9215,0.000537
713.7852,0.000246
715.6489,0.000706
717.5125,0.001032
719.3762,0.000868
721.2399,0.000998
723.1035,0.000826
724.9672,0.000424
726.8309,0.000667
728.6945,0.001011
730.5582,0.000727
732.4219,0.000445
734.2856,0.000528
736.1492,0.000825
738.0129,0.001082
739.8766,0.000816
741.7402,0.000625
743.6039,0.000711
745.4676,0.000630
747.3312,0.000354
749.1949,0.000171
751.0586,0.000317
752.9222,0.000806
754.7859,0.000917
756.6496,0.000770
758.5132,0.000886
760.3769,0.001022
762.2406,0.000817
764.1043,0.000893
765.9679,0.001095
767.8316,0.000823
769.6953,0.000415
771.5589,0.000591
773.4226,0.001126
775.2863,0.001195
777.1499,0.001188
779.0136,0.001458
780.8773,0.001449
782.7409,0.001146
784.6046,0.001019
786.4683,0.001035
788.3320,0.001044
790.1956,0.001088
792.0593,0.001226
793.9230,0.001503
795.7866,0.001608
797.6503,0.001614
799.5140,0.001650
801.3776,0.001313
803.2413,0.001170
805.1050,0.001453
806.9686,0.001516
808.8323,0.001468
810.6960,0.001184
812.5596,0.000891
814.4233,0.000915
816.2870,0.001021
818.1507,0.000914
820.0143,0.000747
821.8780,0.000563
823.7417,0.000489
825.6053,0.000726
827.4690,0.000906
829.3327,0.000954
831.1963,0.000869
833.0600,0.000575
834.9237,0.000428
836.7873,0.000519
838.6510,0.000480
840.5147,0.000556
842.3784,0.000718
844.2420,0.000522
846.1057,0.000475
847.9694,0.000646
849.8330,0.000679
851.6967,0.000768
853.5604,0.000696
855.4240,0.000534
857.2877,0.000535
859.1514,0.000466
861.0150,0.000366
862.8787,0.000407
864.7424,0.000627
866.6060,0.000612
868.4697,0.000541
870.3334,0.000708
872.1971,0.000731
874.0607,0.000633
875.9244,0.000803
877.7881,0.001027
879.6517,0.000884
881.5154,0.000605
883.3791,0.000682
885.2427,0.000845
887.1064,0.000714
888.9701,0.000661
890.8337,0.000893
892.6974,0.000927
894.5611,0.000924
896.4247,0.001065
898.2884,0.000994
900.1521,0.000957
902.0158,0.001032
903.8794,0.001085
905.7431,0.001122
907.6068,0.001132
909.4704,0.001072
911.3341,0.001057
913.1978,0.001085
915.0614,0.001140
916.9251,0.001143
918.7888,0.001147
920.6524,0.001314
922.5161,0.001407
924.3798,0.001362
926.2435,0.001342
928.1071,0.001365
929.9708,0.001427
931.8345,0.001486
933.6981,0.001487
935.5618,0.001453
937.4255,0.001434
939.2891,0.001462
941.1528,0.001624
943.0165,0.001852
944.8801,0.001920
946.7438,0.001903
948.6075,0.002021
950.4711,0.002050
952.3348,0.001877
954.1985,0.001762
956.0622,0.001793
957.9258,0.001769
959.7895,0.001628
961.6532,0.001552
963.5168,0.001620
965.3805,0.001703
967.2442,0.001677
969.1078,0.001636
970.9715,0.001713
972.8352,0.001755
974.6988,0.001638
976.5625,0.001649
978.4262,0.001796
980.2899,0.001842
982.1535,0.001803
984.0172,0.001839
985.8809,0.001983
987.7445,0.002034
989.6082,0.002033
991.4719,0.002078
993.3355,0.002102
995.1992,0.002237
997.0629,0.002453
998.9265,0.002563
1000.7902,0.002601
1002.6539,0.002571
1004.5175,0.002555
1006.3812,0.002598
1008.2449,0.002690
1010.1086,0.002815
1011.9722,0.002945
1013.8359,0.003011
1015.6996,0.003101
1017.5632,0.003233
1019.4269,0.003276
1021.2906,0.003342
1023.1542,0.003406
1025.0179,0.003457
1026.8816,0.003598
1028.7452,0.003697
1030.6089,0.003708
1032.4726,0.003744
1034.3362,0.003846
1036.1999,0.003946
1038.0636,0.003995
1039.9273,0.004068
1041.7909,0.004206
1043.6546,0.004325
1045.5183,0.004360
1047.3819,0.004360
1049.2456,0.004414
1051.1093,0.004450
1052.9729,0.004356
1054.8366,0.004285
1056.7003,0.004286
1058.5639,0.004206
1060.4276,0.004207
1062.2913,0.004404
1064.1550,0.004565
1066.0186,0.004569
1067.8823,0.004592
1069.7460,0.004662
1071.6096,0.004690
1073.4733,0.004650
1075.3370,0.004552
1077.2006,0.004497
1079.0643,0.004432
1080.9280,0.004362
1082.7916,0.004314
1084.6553,0.004251
1086.5190,0.004219
1088.3826,0.004174
1090.2463,0.004128
1092.1100,0.004079
1093.9737,0.004030
1095.8373,0.004006
1097.7010,0.003865
1099.5647,0.003700
1101.4283,0.003693
1103.2920,0.003626
1105.1557,0.003467
1107.0193,0.003331
1108.8830,0.003188
1110.7467,0.003092
1112.6103,0.003046
1114.4740,0.002970
1116.3377,0.002969
1118.2014,0.003003
1120.0650,0.002877
1121.9287,0.002744
1123.7924,0.002780
1125.6560,0.002797
1127.5197,0.002654
1129.3834,0.002467
1131.2470,0.002348
1133.1107,0.002249
1134.9744,0.002162
1136.8380,0.002150
1138.7017,0.002170
1140.5654,0.002081
1142.4290,0.001941
1144.2927,0.001860
1146.1564,0.001808
1148.0201,0.001769
1149.8837,0.001701
1151.7474,0.001638
1153.6111,0.001583
1155.4747,0.001545
1157.3384,0.001566
1159.2021,0.001595
1161.0657,0.001590
1162.9294,0.001522
1164.7931,0.001462
1166.6567,0.001506
1168.5204,0.001629
1170.3841,0.001594
1172.2477,0.001374
1174.1114,0.001295
1175.9751,0.001344
1177.8388,0.001330
1179.7024,0.001267
1181.5661,0.001182
1183.4298,0.001170
1185.2934,0.001170
1187.1571,0.001142
1189.0208,0.001163
1190.8844,0.001169
1192.7481,0.001116
1194.6118,0.001078
1196.4754,0.001091
1198.3391,0.001055
1200.2028,0.001018
1202.0665,0.000993
1203.9301,0.000967
1205.7938,0.000975
1207.6575,0.000964
1209.5211,0.000899
1211.3848,0.000820
1213.2485,0.000825
1215.1121,0.000845
1216.9758,0.000782
1218.8395,0.000718
1220.7031,0.000708
1222.5668,0.000737
1224.4305,0.000738
1226.2941,0.000712
1228.1578,0.000651
1230.0215,0.000557
1231.8852,0.000568
1233.7488,0.000627
1235.6125,0.000581
1237.4762,0.000538
1239.3398,0.000571
1241.2035,0.000577
1243.0672,0.000495
1244.9308,0.000394
1246.7945,0.000380
1248.6582,0.000328
1250.5218,0.000261
1252.3855,0.000284
1254.2492,0.000335
1256.1129,0.000399
1257.9765,0.000418
1259.8402,0.000379
1261.7039,0.000427
1263.5675,0.000488
1265.4312,0.000434
1267.2949,0.000377
1269.1585,0.000356
1271.0222,0.000303
1272.8859,0.000193
1274.7495,0.000139
1276.6132,0.000135
1278.4769,0.000182
1280.3405,0.000241
1282.2042,0.000235
1284.0679,0.000166
1285.9316,0.000093
1287.7952,0.000066
1289.6589,0.000076
1291.5226,0.000099
1293.3862,0.000152
1295.2499,0.000178
1297.1136,0.000162
1298.9772,0.000174
1300.8409,0.000219
1302.7046,0.000198
1304.5682,0.000137
1306.4319,0.000196
1308.2956,0.000218
1310.1592,0.000107
1312.0229,0.000102
1313.8866,0.000239
1315.7503,0.000256
1317.6139,0.000160
1319.4776,0.000179
1321.3413,0.000204
1323.2049,0.000127
1325.0686,0.000099
1326.9323,0.000129
1328.7959,0.000121
1330.6596,0.000149
1332.5233,0.000184
1334.3869,0.000109
1336.2506,-0.000014
1338.1143,-0.000098
1339.9780,-0.000077
1341.8416,0.000101
1343.7053,0.000151
1345.5690,0.000058
1347.4326,0.000041
1349.2963,0.000045
1351.1600,0.000043
1353.0236,0.000021
1354.8873,0.000068
1356.7510,0.000137
1358.6146,0.000131
1360.4783,-0.000037
1362.3420,-0.000154
1364.2056,0.000026
1366.0693,0.000182
1367.9330,0.000126
1369.7967,0.000135
1371.6603,-0.000007
1373.5240,-0.000217
1375.3877,-0.000075
1377.2513,0.000088
1379.1150,0.000004
1380.9787,0.000044
1382.8423,0.000058
1384.7060,-0.000049
1386.5697,-0.000322
1388.4333,-0.000134
1390.2970,0.000160
1392.1607,-0.000041
1394.0244,-0.000306
1395.8880,-0.000159
1397.7517,-0.000045
1399.6154,0.000048
1401.4790,0.000326
1403.3427,0.000049
1405.2064,-0.000017
1407.0700,0.000216
1408.9337,0.000248
1410.7974,0.000112
1412.6610,0.000078
1414.5247,-0.000009
1416.3884,-0.000359
1418.2520,-0.000599
1420.1157,0.000007
1421.9794,0.000253
1423.8431,-0.000100
1425.7067,0.000065
1427.5704,0.000002
1429.4341,-0.000195
1431.2977,-0.000022
1433.1614,-0.000132
1435.0251,-0.000516
1436.8887,-0.000364
1438.7524,0.000309
1440.6161,0.000209
1442.4797,0.000047
1444.3434,-0.000089
1446.2071,-0.000293
1448.0707,-0.000205
1449.9344,0.000022
1451.7981,-0.000097
1453.6618,-0.000558
1455.5254,-0.001230
1457.3891,-0.000927
1459.2528,0.000304
1461.1164,0.000131
1462.9801,-0.000265
1464.8438,-0.000197
1466.7074,0.000362
1468.5711,-0.000027
1470.4348,-0.000768
1472.2984,-0.001148
1474.1621,-0.000399
1476.0258,-0.000103
1477.8895,-0.000036
1479.7531,-0.000059
1481.6168,0.000001
1483.4805,0.000166
1485.3441,-0.000188
1487.2078,-0.000696
1489.0715,-0.000658
1490.9351,-0.000186
1492.7988,0.000177
1494.6625,-0.000351
1496.5261,-0.000721
1498.3898,-0.000262
1500.2535,0.000121
1502.1171,-0.000010
1503.9808,-0.000978
1505.8445,-0.002127
1507.7082,-0.000961
1509.5718,0.000026
1511.4355,-0.000251
1513.2992,-0.000308
1515.1628,-0.000557
1517.0265,-0.000828
1518.8902,-0.000789
1520.7538,-0.001371
1522.6175,-0.000958
1524.4812,-0.000541
1526.3448,-0.000561
1528.2085,-0.000111
1530.0722,-0.000280
1531.9359,-0.000651
1533.7995,-0.000550
1535.6632,0.000010
1537.5269,-0.001056
1539.3905,-0.002227
1541.2542,-0.001056
1543.1179,-0.000311
1544.9815,-0.000174
1546.8452,0.000112
1548.7089,-0.000088
1550.5725,-0.000253
1552.4362,-0.000260
1554.2999,-0.000841
1556.1635,-0.001449
1558.0272,-0.002823
1559.8909,-0.001167
1561.7546,0.000593
1563.6182,0.000055
1565.4819,-0.000188
1567.3456,-0.000258
1569.2092,-0.000454
1571.0729,0.000270
1572.9366,0.000148
1574.8002,-0.000696
1576.6639,-0.000394
1578.5276,0.000318
1580.3912,0.000136
1582.2549,0.000200
1584.1186,0.000184
1585.9822,0.000021
1587.8459,0.000134
1589.7096,0.000366
1591.5733,0.000449
1593.4369,0.000213
1595.3006,0.000054
1597.1643,0.000130
1599.0279,0.000115
1600.8916,-0.000027
1602.7553,0.000086
1604.6189,0.000125
1606.4826,0.000112
1608.3463,0.000230
1610.2099,0.000372
1612.0736,0.000128
1613.9373,-0.000242
1615.8010,-0.000798
1617.6646,-0.000262
1619.5283,0.000153
1621.3920,-0.000318
1623.2556,-0.000221
1625.1193,0.000451
1626.9830,0.000186
1628.8466,0.000095
1630.7103,0.000169
1632.5740,-0.000468
1634.4376,-0.001063
1636.3013,-0.000421
1638.1650,0.000454
1640.0286,0.000367
1641.8923,0.000169
1643.7560,-0.000258
1645.6197,-0.000756
1647.4833,-0.000405
1649.3470,-0.000107
1651.2107,-0.001415
1653.0743,-0.002181
1654.9380,0.000477
1656.8017,0.000715
1658.6653,0.000238
1660.5290,0.000003
1662.3927,-0.000066
1664.2563,0.000284
1666.1200,-0.000059
1667.9837,-0.000693
1669.8474,-0.000594
1671.7110,-0.000059
1673.5747,-0.000350
1675.4384,-0.000221
1677.3020,0.000656
1679.1657,0.000154
1681.0294,-0.000623
1682.8930,-0.001277
1684.7567,-0.000711
1686.6204,0.000468
1688.4840,-0.000009
1690.3477,0.000003
1692.2114,-0.000100
1694.0750,-0.000689
1695.9387,-0.001176
1697.8024,-0.000942
1699.6661,-0.001744
1701.5297,-0.000412
1703.3934,-0.000024
1705.2571,-0.000631
1707.1207,-0.000109
1708.9844,0.000217
1710.8481,0.000049
1712.7117,-0.000321
1714.5754,-0.000919
1716.4391,-0.001278
1718.3027,-0.000621
1720.1664,0.000367
1722.0301,0.000073
1723.8937,-0.000092
1725.7574,0.000007
1727.6211,-0.000044
1729.4848,-0.000254
1731.3484,-0.000682
1733.2121,-0.001236
1735.0758,-0.000106
1736.9394,0.000440
1738.8031,-0.000541
1740.6668,-0.000279
1742.5304,0.000008
1744.3941,-0.000017
1746.2578,-0.000227
1748.1214,-0.000514
1749.9851,-0.000375
1751.8488,0.000092
1753.7125,0.000262
1755.5761,-0.000145
1757.4398,-0.000024
1759.3035,0.000065
1761.1671,-0.000251
1763.0308,0.000147
1764.8945,0.000231
1766.7581,-0.000296
1768.6218,-0.000474
1770.4855,-0.000583
1772.3491,-0.000750
1774.2128,-0.000155
1776.0765,-0.000091
1777.9401,-0.000047
1779.8038,-0.000120
1781.6675,0.000058
1783.5312,0.000123
1785.3948,0.000103
1787.2585,0.000124
1789.1222,-0.000184
1790.9858,-0.000463
1792.8495,-0.000259
1794.7132,0.000105
1796.5768,-0.000098
1798.4405,-0.000205
1800.3042,-0.000142
1802.1678,0.000011
1804.0315,0.000156
1805.8952,0.000371
1807.7589,0.000207
1809.6225,-0.000182
1811.4862,-0.000088
1813.3499,0.000218
1815.2135,0.000098
1817.0772,-0.000089
1818.9409,0.000097
1820.8045,0.000103
1822.6682,-0.000033
1824.5319,-0.000136
1826.3955,-0.000203
1828.2592,-0.000289
1830.1229,-0.000087
1831.9865,0.000201
1833.8502,-0.000056
1835.7139,0.000049
1837.5776,0.000174
1839.4412,-0.000028
1841.3049,-0.000360
1843.1686,-0.000598
1845.0322,-0.000283
1846.8959,0.000216
1848.7596,0.000137
1850.6232,0.000028
1852.4869,-0.000089
1854.3506,-0.000098
1856.2142,-0.000196
1858.0779,0.000077
1859.9416,0.000238
1861.8052,0.000243
1863.6689,0.000211
1865.5326,0.000005
1867.3963,-0.000580
1869.2599,-0.000629
1871.1236,-0.000023
1872.9873,0.000195
1874.8509,0.000232
1876.7146,0.000168
1878.5783,0.000072
1880.4419,0.000156
1882.3056,0.000054
1884.1693,-0.000020
1886.0329,-0.000001
1887.8966,-0.000062
1889.7603,-0.000087
1891.6240,0.000174
1893.4876,0.000014
1895.3513,0.000214
1897.2150,0.000426
1899.0786,0.000335
1900.9423,0.000261
1902.8060,0.000102
1904.6696,-0.000024
1906.5333,-0.000108
1908.3970,0.000107
1910.2606,0.000337
1912.1243,-0.000032
1913.9880,-0.000359
1915.8516,-0.000168
1917.7153,-0.000163
1919.5790,-0.000131
1921.4427,-0.000221
1923.3063,-0.000314
1925.1700,0.000045
1927.0337,0.000288
1928.8973,0.000531
1930.7610,0.000297
1932.6247,0.000028
1934.4883,-0.000132
1936.3520,-0.000196
1938.2157,-0.000080
1940.0793,-0.000288
1941.9430,-0.000373
1943.8067,-0.000410
1945.6704,-0.000758
1947.5340,-0.000381
1949.3977,-0.000095
1951.2614,0.000037
1953.1250,0.000027
1954.9887,-0.000265
1956.8524,-0.000349
1958.7160,-0.000035
1960.5797,0.000032
1962.4434,0.000482
1964.3070,0.000330
1966.1707,-0.001085
1968.0344,-0.001057
1969.8980,-0.000284
1971.7617,-0.000488
1973.6254,-0.000693
1975.4891,-0.000651
1977.3527,-0.000392
1979.2164,-0.000005
1981.0801,0.000514
1982.9437,0.000261
1984.8074,-0.000092
1986.6711,-0.000138
1988.5347,-0.000229
1990.3984,-0.000903
1992.2621,-0.000556
1994.1257,0.000041
1995.9894,0.000423
1997.8531,-0.000039
1999.7167,-0.000768
2001.5804,-0.000491
2003.4441,-0.000399
2005.3078,-0.000902
2007.1714,-0.000719
2009.0351,-0.000197
2010.8988,-0.000142
2012.7624,-0.000573
2014.6261,-0.001311
2016.4898,-0.000781
2018.3534,-0.000002
2020.2171,0.000280
2022.0808,0.000346
2023.9444,0.000596
2025.8081,0.000471
2027.6718,0.000245
2029.5355,0.000151
2031.3991,-0.000008
2033.2628,-0.000181
2035.1265,-0.000335
2036.9901,0.000174
2038.8538,-0.000066
2040.7175,-0.000699
2042.5811,-0.000096
2044.4448,0.000044
2046.3085,-0.000321
2048.1721,0.000355
2050.0358,0.000486
2051.8995,0.000281
2053.7631,0.000252
2055.6268,0.000261
2057.4905,-0.000194
2059.3542,-0.000210
2061.2178,0.000197
2063.0815,0.000032
2064.9452,-0.000032
2066.8088,0.000357
2068.6725,0.000528
2070.5362,0.000033
2072.3998,-0.000220
2074.2635,0.000216
2076.1272,0.000384
2077.9908,0.000661
2079.8545,0.000555
2081.7182,0.000015
2083.5819,-0.000435
2085.4455,-0.000536
2087.3092,-0.000159
2089.1729,0.000079
2091.0365,-0.000182
2092.9002,-0.000292
2094.7639,0.000024
2096.6275,0.000314
2098.4912,0.000362
2100.3549,0.000229
2102.2185,0.000136
2104.0822,0.000132
2105.9459,0.000130
2107.8095,0.000229
2109.6732,-0.000072
2111.5369,-0.000078
2113.4006,-0.000046
2115.2642,-0.000206
2117.1279,0.000145
2118.9916,0.000395
2120.8552,0.000081
2122.7189,0.000023
2124.5826,0.000242
2126.4462,0.000387
2128.3099,0.000282
2130.1736,-0.000236
2132.0372,-0.000230
2133.9009,-0.000197
2135.7646,-0.000590
2137.6282,-0.000732
2139.4919,-0.000879
2141.3556,-0.000524
2143.2193,-0.000232
2145.0829,-0.000695
2146.9466,-0.000513
2148.8103,-0.000270
2150.6739,-0.000699
2152.5376,-0.001058
2154.4013,-0.000800
2156.2649,-0.000777
2158.1286,-0.000731
2159.9923,0.000357
2161.8559,0.000095
2163.7196,-0.000589
2165.5833,-0.000692
2167.4470,-0.000081
2169.3106,-0.000070
2171.1743,-0.000315
2173.0380,0.000044
2174.9016,-0.000016
2176.7653,-0.000133
2178.6290,0.000215
2180.4926,0.000328
2182.3563,0.000426
2184.2200,0.000457
2186.0836,0.000045
2187.9473,-0.000851
2189.8110,-0.000474
2191.6746,0.000382
2193.5383,0.000262
2195.4020,0.000031
2197.2657,-0.000086
2199.1293,-0.000069
2200.9930,-0.000019
2202.8567,-0.000371
2204.7203,-0.000814
2206.5840,-0.000683
2208.4477,0.000158
2210.3113,0.000531
2212.1750,0.000058
2214.0387,-0.000044
2215.9023,0.000299
2217.7660,-0.000333
2219.6297,-0.000247
2221.4934,0.000409
2223.3570,0.000256
2225.2207,-0.000036
2227.0844,-0.000062
2228.9480,0.000018
2230.8117,-0.000145
2232.6754,-0.000067
2234.5390,0.000019
2236.4027,0.000078
2238.2664,0.000181
2240.1300,0.000450
2241.9937,0.000251
2243.8574,0.000235
2245.7210,0.000745
2247.5847,-0.000164
2249.4484,-0.000538
2251.3121,0.000051
2253.1757,0.000131
2255.0394,-0.000225
2256.9031,-0.000062
2258.7667,0.000297
2260.6304,0.000191
2262.4941,-0.000018
2264.3577,-0.000405
2266.2214,-0.000482
2268.0851,0.000070
2269.9487,0.000062
2271.8124,-0.000022
2273.6761,0.000388
2275.5397,0.000490
2277.4034,0.000469
2279.2671,0.000310
2281.1308,0.000095
2282.9944,0.000091
2284.8581,0.000315
2286.7218,0.000452
2288.5854,0.000416
2290.4491,0.000305
2292.3128,0.000272
2294.1764,0.000384
2296.0401,0.000252
2297.9038,0.000311
2299.7674,0.000759
2301.6311,0.000745
2303.4948,0.000517
2305.3585,0.000729
2307.2221,0.000983
2309.0858,0.001078
2310.9495,0.001221
2312.8131,0.001727
2314.6768,0.001990
2316.5405,0.001829
2318.4041,0.001984
2320.2678,0.002414
2322.1315,0.002698
2323.9951,0.002808
2325.8588,0.002850
2327.7225,0.002912
2329.5861,0.003032
2331.4498,0.002692
2333.3135,0.002712
2335.1772,0.003271
2337.0408,0.003452
2338.9045,0.003365
2340.7682,0.003545
2342.6318,0.003757
2344.4955,0.003492
2346.3592,0.003001
2348.2228,0.002454
2350.0865,0.002091
2351.9502,0.002613
2353.8138,0.003350
2355.6775,0.003532
2357.5412,0.004117
2359.4049,0.004770
2361.2685,0.004421
2363.1322,0.003804
2364.9959,0.004147
2366.8595,0.004585
2368.7232,0.003975
2370.5869,0.003570
2372.4505,0.003404
2374.3142,0.002959
2376.1779,0.002177
2378.0415,0.001536
2379.9052,0.001119
2381.7689,0.000775
2383.6325,0.000554
2385.4962,0.000249
2387.3599,0.000225
2389.2236,0.000292
2391.0872,-0.000046
2392.9509,-0.000439
2394.8146,-0.000481
2396.6782,-0.000412
2398.5419,0.000033
2400.4056,0.000303
2402.2692,-0.000014
2404.1329,-0.000201
2405.9966,-0.000190
2407.8602,0.000196
2409.7239,0.000290
2411.5876,0.000000
2413.4512,-0.000218
2415.3149,-0.000238
2417.1786,0.000008
2419.0423,0.000068
2420.9059,0.000055
2422.7696,-0.000086
2424.6333,-0.000211
2426.4969,-0.000024
2428.3606,-0.000043
2430.2243,-0.000169
2432.0879,0.000112
2433.9516,0.000349
2435.8153,0.000528
2437.6789,0.000226
2439.5426,-0.000372
2441.4063,-0.000586
2443.2700,-0.000193
2445.1336,0.000182
2446.9973,0.000304
2448.8610,0.000222
2450.7246,0.000127
2452.5883,0.000006
2454.4520,-0.000091
2456.3156,-0.000068
2458.1793,-0.000171
2460.0430,-0.000206
2461.9066,-0.000124
2463.7703,0.000146
2465.6340,0.000256
2467.4976,0.000165
2469.3613,0.000330
2471.2250,0.000107
2473.0887,-0.000335
2474.9523,-0.000317
2476.8160,-0.000208
2478.6797,-0.000283
2480.5433,-0.000419
2482.4070,-0.000331
2484.2707,-0.000106
2486.1343,-0.000097
2487.9980,-0.000331
2489.8617,-0.000331
2491.7253,-0.000205
2493.5890,-0.000148
2495.4527,-0.000341
2497.3164,-0.000420
2499.1800,0.000119
2501.0437,0.000445
2502.9074,0.000247
2504.7710,0.000352
2506.6347,0.000301
2508.4984,-0.000102
2510.3620,-0.000021
2512.2257,0.000334
2514.0894,0.000315
2515.9530,-0.000017
2517.8167,-0.000161
2519.6804,0.000194
2521.5440,0.000250
2523.4077,-0.000162
2525.2714,-0.000565
2527.1351,-0.000431
2528.9987,-0.000007
2530.8624,0.000163
2532.7261,0.000313
2534.5897,0.000361
2536.4534,0.000459
2538.3171,0.000741
2540.1807,0.000586
2542.0444,0.000470
2543.9081,0.000128
2545.7717,-0.000459
2547.6354,-0.000403
2549.4991,-0.000265
2551.3627,-0.000178
2553.2264,-0.000091
2555.0901,-0.000282
2556.9538,-0.000329
2558.8174,0.000169
2560.6811,0.000388
2562.5448,0.000414
2564.4084,0.000230
2566.2721,0.000122
2568.1358,0.000270
2569.9994,-0.000054
2571.8631,-0.000148
2573.7268,0.000292
2575.5904,0.000368
2577.4541,0.000084
2579.3178,-0.000231
2581.1815,-0.000354
2583.0451,-0.000306
2584.9088,-0.000146
2586.7725,0.000025
2588.6361,0.000170
2590.4998,0.000248
2592.3635,0.000398
