Wavenumber,Intensity
650.4205,0.069872
652.2841,0.066966
654.1478,0.066905
656.0115,0.068794
657.8751,0.069514
659.7388,0.068780
661.6025,0.068354
663.4661,0.068886
665.3298,0.069561
667.1935,0.069663
669.0571,0.068229
670.9208,0.067066
672.7845,0.065682
674.6481,0.065059
676.5118,0.065791
678.3755,0.065391
680.2392,0.064012
682.1028,0.063594
683.9665,0.063338
685.8302,0.062365
687.6938,0.062139
689.5575,0.062776
691.4212,0.063140
693.2848,0.062790
695.1485,0.062220
697.0122,0.061588
698.8758,0.060775
700.7395,0.060280
702.6032,0.060598
704.4669,0.060818
706.3305,0.060134
708.1942,0.059842
710.0579,0.060740
711.9215,0.061503
713.7852,0.061292
715.6489,0.059899
717.5125,0.058163
719.3762,0.056958
721.2399,0.056455
723.1035,0.056516
724.9672,0.056534
726.8309,0.056289
728.6945,0.055797
730.5582,0.054953
732.4219,0.054241
734.2856,0.054523
736.1492,0.054577
738.0129,0.054265
739.8766,0.054619
741.7402,0.054104
743.6039,0.053304
745.4676,0.053362
747.3312,0.053498
749.1949,0.053261
751.0586,0.052722
752.9222,0.052694
754.7859,0.053022
756.6496,0.052914
758.5132,0.052424
760.3769,0.051956
762.2406,0.051862
764.1043,0.051938
765.9679,0.051760
767.8316,0.051224
769.6953,0.050935
771.5589,0.051235
773.4226,0.051108
775.2863,0.050834
777.1499,0.051017
779.0136,0.050869
780.8773,0.050543
782.7409,0.050342
784.6046,0.050061
786.4683,0.049511
788.3320,0.049149
790.1956,0.049201
792.0593,0.049076
793.9230,0.048845
795.7866,0.048693
797.6503,0.048602
799.5140,0.048561
801.3776,0.048215
803.2413,0.047648
805.1050,0.047472
806.9686,0.047440
808.8323,0.046896
810.6960,0.046537
812.5596,0.046748
814.4233,0.046770
816.2870,0.046711
818.1507,0.046710
820.0143,0.046629
821.8780,0.046414
823.7417,0.046201
825.6053,0.046271
827.4690,0.046309
829.3327,0.046236
831.1963,0.046349
833.0600,0.046529
834.9237,0.046509
836.7873,0.046550
838.6510,0.047012
840.5147,0.047598
842.3784,0.047865
844.2420,0.048042
846.1057,0.048558
847.9694,0.049191
849.8330,0.049640
851.6967,0.050029
853.5604,0.050555
855.4240,0.051182
857.2877,0.051813
859.1514,0.052600
861.0150,0.053600
862.8787,0.054699
864.7424,0.055967
866.6060,0.057454
868.4697,0.059352
870.3334,0.061783
872.1971,0.063893
874.0607,0.064921
875.9244,0.064882
877.7881,0.063804
879.6517,0.062317
881.5154,0.061058
883.3791,0.059892
885.2427,0.058682
887.1064,0.057738
888.9701,0.057487
890.8337,0.057799
892.6974,0.058196
894.5611,0.058480
896.4247,0.058904
898.2884,0.059443
900.1521,0.059954
902.0158,0.060475
903.8794,0.060894
905.7431,0.061221
907.6068,0.061725
909.4704,0.062228
911.3341,0.062612
913.1978,0.063075
915.0614,0.063488
916.9251,0.063903
918.7888,0.064386
920.6524,0.064934
922.5161,0.065478
924.3798,0.066054
926.2435,0.066798
928.1071,0.067599
929.9708,0.068347
931.8345,0.069056
933.6981,0.069834
935.5618,0.070632
937.4255,0.071423
939.2891,0.072329
941.1528,0.073247
943.0165,0.074143
944.8801,0.075196
946.7438,0.076296
948.6075,0.077315
950.4711,0.078379
952.3348,0.079448
954.1985,0.080540
956.0622,0.081751
957.9258,0.082928
959.7895,0.084062
961.6532,0.085184
963.5168,0.086304
965.3805,0.087499
967.2442,0.088634
969.1078,0.089763
970.9715,0.090852
972.8352,0.091829
974.6988,0.093011
976.5625,0.094284
978.4262,0.095388
980.2899,0.096477
982.1535,0.097617
984.0172,0.098682
985.8809,0.099547
987.7445,0.100214
989.6082,0.100872
991.4719,0.101566
993.3355,0.102118
995.1992,0.102504
997.0629,0.102875
998.9265,0.103185
1000.7902,0.103353
1002.6539,0.103492
1004.5175,0.103614
1006.3812,0.103700
1008.2449,0.103775
1010.1086,0.103898
1011.9722,0.104052
1013.8359,0.103979
1015.6996,0.103795
1017.5632,0.103487
1019.4269,0.102938
1021.2906,0.102392
1023.1542,0.101786
1025.0179,0.101126
1026.8816,0.100464
1028.7452,0.099667
1030.6089,0.098822
1032.4726,0.097871
1034.3362,0.096665
1036.1999,0.095314
1038.0636,0.093944
1039.9273,0.092616
1041.7909,0.091351
1043.6546,0.090124
1045.5183,0.088967
1047.3819,0.087887
1049.2456,0.086752
1051.1093,0.085629
1052.9729,0.084615
1054.8366,0.083573
1056.7003,0.082384
1058.5639,0.081044
1060.4276,0.079532
1062.2913,0.077882
1064.1550,0.076264
1066.0186,0.074781
1067.8823,0.073473
1069.7460,0.072315
1071.6096,0.071278
1073.4733,0.070274
1075.3370,0.069222
1077.2006,0.068194
1079.0643,0.067124
1080.9280,0.065973
1082.7916,0.064936
1084.6553,0.064083
1086.5190,0.063211
1088.3826,0.062395
1090.2463,0.061702
1092.1100,0.060907
1093.9737,0.060136
1095.8373,0.059470
1097.7010,0.058785
1099.5647,0.058078
1101.4283,0.057381
1103.2920,0.056732
1105.1557,0.056180
1107.0193,0.055647
1108.8830,0.054998
1110.7467,0.054201
1112.6103,0.053357
1114.4740,0.052433
1116.3377,0.051310
1118.2014,0.050353
1120.0650,0.049591
1121.9287,0.048738
1123.7924,0.047872
1125.6560,0.046984
1127.5197,0.046081
1129.3834,0.045279
1131.2470,0.044570
1133.1107,0.043911
1134.9744,0.043321
1136.8380,0.042792
1138.7017,0.042419
1140.5654,0.042122
1142.4290,0.041828
1144.2927,0.041561
1146.1564,0.041192
1148.0201,0.040865
1149.8837,0.040615
1151.7474,0.040297
1153.6111,0.039952
1155.4747,0.039540
1157.3384,0.038938
1159.2021,0.038233
1161.0657,0.037421
1162.9294,0.036445
1164.7931,0.035385
1166.6567,0.034269
1168.5204,0.033023
1170.3841,0.031760
1172.2477,0.030694
1174.1114,0.029658
1175.9751,0.028590
1177.8388,0.027649
1179.7024,0.026884
1181.5661,0.026179
1183.4298,0.025441
1185.2934,0.024860
1187.1571,0.024499
1189.0208,0.024186
1190.8844,0.023924
1192.7481,0.023722
1194.6118,0.023579
1196.4754,0.023488
1198.3391,0.023499
1200.2028,0.023492
1202.0665,0.023337
1203.9301,0.023096
1205.7938,0.022884
1207.6575,0.022701
1209.5211,0.022512
1211.3848,0.022323
1213.2485,0.022267
1215.1121,0.022315
1216.9758,0.022409
1218.8395,0.022508
1220.7031,0.022547
1222.5668,0.022628
1224.4305,0.022728
1226.2941,0.022899
1228.1578,0.023153
1230.0215,0.023332
1231.8852,0.023385
1233.7488,0.023387
1235.6125,0.023398
1237.4762,0.023451
1239.3398,0.023366
1241.2035,0.023264
1243.0672,0.023250
1244.9308,0.023231
1246.7945,0.023185
1248.6582,0.023062
1250.5218,0.023018
1252.3855,0.023076
1254.2492,0.022979
1256.1129,0.022848
1257.9765,0.022846
1259.8402,0.022804
1261.7039,0.022702
1263.5675,0.022668
1265.4312,0.022675
1267.2949,0.022584
1269.1585,0.022551
1271.0222,0.022620
1272.8859,0.022680
1274.7495,0.022744
1276.6132,0.022784
1278.4769,0.022863
1280.3405,0.022986
1282.2042,0.023012
1284.0679,0.022995
1285.9316,0.023074
1287.7952,0.023158
1289.6589,0.023227
1291.5226,0.023424
1293.3862,0.023692
1295.2499,0.023926
1297.1136,0.024054
1298.9772,0.024234
1300.8409,0.024480
1302.7046,0.024749
1304.5682,0.025042
1306.4319,0.025288
1308.2956,0.025491
1310.1592,0.025808
1312.0229,0.026153
1313.8866,0.026270
1315.7503,0.026402
1317.6139,0.026533
1319.4776,0.026489
1321.3413,0.026360
1323.2049,0.026354
1325.0686,0.026341
1326.9323,0.026342
1328.7959,0.026608
1330.6596,0.026892
1332.5233,0.027002
1334.3869,0.027188
1336.2506,0.027520
1338.1143,0.027903
1339.9780,0.028030
1341.8416,0.027996
1343.7053,0.028086
1345.5690,0.028259
1347.4326,0.028418
1349.2963,0.028614
1351.1600,0.028819
1353.0236,0.029150
1354.8873,0.029594
1356.7510,0.029937
1358.6146,0.030294
1360.4783,0.030903
1362.3420,0.031458
1364.2056,0.031693
1366.0693,0.031894
1367.9330,0.032270
1369.7967,0.032672
1371.6603,0.033044
1373.5240,0.033457
1375.3877,0.033666
1377.2513,0.033638
1379.1150,0.033760
1380.9787,0.034099
1382.8423,0.034328
1384.7060,0.034651
1386.5697,0.035166
1388.4333,0.035534
1390.2970,0.035757
1392.1607,0.036363
1394.0244,0.037188
1395.8880,0.037662
1397.7517,0.037925
1399.6154,0.038160
1401.4790,0.038517
1403.3427,0.039001
1405.2064,0.039504
1407.0700,0.039688
1408.9337,0.039975
1410.7974,0.040211
1412.6610,0.040346
1414.5247,0.040294
1416.3884,0.040518
1418.2520,0.040890
1420.1157,0.040592
1421.9794,0.040007
1423.8431,0.039647
1425.7067,0.039361
1427.5704,0.039026
1429.4341,0.038736
1431.2977,0.038234
1433.1614,0.037794
1435.0251,0.037856
1436.8887,0.037588
1438.7524,0.036693
1440.6161,0.036030
1442.4797,0.035828
1444.3434,0.035585
1446.2071,0.035435
1448.0707,0.035021
1449.9344,0.034442
1451.7981,0.033959
1453.6618,0.033875
1455.5254,0.034214
1457.3891,0.034016
1459.2528,0.032256
1461.1164,0.031034
1462.9801,0.030762
1464.8438,0.030558
1466.7074,0.029797
1468.5711,0.028966
1470.4348,0.028747
1472.2984,0.028488
1474.1621,0.027889
1476.0258,0.027012
1477.8895,0.026305
1479.7531,0.025888
1481.6168,0.025596
1483.4805,0.025317
1485.3441,0.025165
1487.2078,0.025499
1489.0715,0.025921
1490.9351,0.025554
1492.7988,0.024930
1494.6625,0.024918
1496.5261,0.025508
1498.3898,0.025621
1500.2535,0.025184
1502.1171,0.025009
1503.9808,0.025449
1505.8445,0.026454
1507.7082,0.026948
1509.5718,0.026149
1511.4355,0.025762
1513.2992,0.025961
1515.1628,0.026311
1517.0265,0.026604
1518.8902,0.026694
1520.7538,0.026757
1522.6175,0.026567
1524.4812,0.026048
1526.3448,0.026050
1528.2085,0.025800
1530.0722,0.025497
1531.9359,0.025857
1533.7995,0.026197
1535.6632,0.025766
1537.5269,0.025598
1539.3905,0.026830
1541.2542,0.027040
1543.1179,0.025883
1544.9815,0.025244
1546.8452,0.024988
1548.7089,0.024811
1550.5725,0.024843
1552.4362,0.024552
1554.2999,0.024382
1556.1635,0.024842
1558.0272,0.026078
1559.8909,0.026315
1561.7546,0.024304
1563.6182,0.023677
1565.4819,0.023961
1567.3456,0.024367
1569.2092,0.024779
1571.0729,0.024701
1572.9366,0.024623
1574.8002,0.025384
1576.6639,0.025972
1578.5276,0.025675
1580.3912,0.025596
1582.2549,0.025947
1584.1186,0.026355
1585.9822,0.026647
1587.8459,0.026982
1589.7096,0.027319
1591.5733,0.027505
1593.4369,0.027860
1595.3006,0.028230
1597.1643,0.028469
1599.0279,0.028640
1600.8916,0.028777
1602.7553,0.028896
1604.6189,0.029050
1606.4826,0.029372
1608.3463,0.029634
1610.2099,0.029580
1612.0736,0.029368
1613.9373,0.029800
1615.8010,0.030436
1617.6646,0.030792
1619.5283,0.030424
1621.3920,0.030400
1623.2556,0.030917
1625.1193,0.030980
1626.9830,0.030933
1628.8466,0.031151
1630.7103,0.030896
1632.5740,0.030944
1634.4376,0.032058
1636.3013,0.032629
1638.1650,0.031442
1640.0286,0.030749
1641.8923,0.030570
1643.7560,0.030814
1645.6197,0.031618
1647.4833,0.031258
1649.3470,0.029964
1651.2107,0.030066
1653.0743,0.031458
1654.9380,0.030094
1656.8017,0.028238
1658.6653,0.027425
1660.5290,0.027135
1662.3927,0.026936
1664.2563,0.026115
1666.1200,0.025246
1667.9837,0.024874
1669.8474,0.024320
1671.7110,0.023276
1673.5747,0.022537
1675.4384,0.022071
1677.3020,0.021183
1679.1657,0.020259
1681.0294,0.019969
1682.8930,0.019930
1684.7567,0.019953
1686.6204,0.018154
1688.4840,0.016670
1690.3477,0.016082
1692.2114,0.015536
1694.0750,0.015030
1695.9387,0.014673
1697.8024,0.014228
1699.6661,0.013494
1701.5297,0.013417
1703.3934,0.012287
1705.2571,0.011619
1707.1207,0.011343
1708.9844,0.010884
1710.8481,0.010522
1712.7117,0.010307
1714.5754,0.010512
1716.4391,0.010589
1718.3027,0.010379
1720.1664,0.010104
1722.0301,0.009499
1723.8937,0.009313
1725.7574,0.009145
1727.6211,0.009008
1729.4848,0.009062
1731.3484,0.009213
1733.2121,0.009207
1735.0758,0.009456
1736.9394,0.008582
1738.8031,0.007927
1740.6668,0.008307
1742.5304,0.008368
1744.3941,0.008066
1746.2578,0.007776
1748.1214,0.007864
1749.9851,0.008136
1751.8488,0.008035
1753.7125,0.007621
1755.5761,0.007128
1757.4398,0.007313
1759.3035,0.007357
1761.1671,0.007283
1763.0308,0.007315
1764.8945,0.006880
1766.7581,0.006690
1768.6218,0.007169
1770.4855,0.007278
1772.3491,0.007305
1774.2128,0.007558
1776.0765,0.007250
1777.9401,0.007216
1779.8038,0.007157
1781.6675,0.007171
1783.5312,0.007058
1785.3948,0.007118
1787.2585,0.007148
1789.1222,0.007472
1790.9858,0.007914
1792.8495,0.008284
1794.7132,0.008016
1796.5768,0.007615
1798.4405,0.007478
1800.3042,0.007491
1802.1678,0.007556
1804.0315,0.007374
1805.8952,0.007213
1807.7589,0.007275
1809.6225,0.007528
1811.4862,0.007494
1813.3499,0.007164
1815.2135,0.007005
1817.0772,0.007144
1818.9409,0.007271
1820.8045,0.007388
1822.6682,0.007407
1824.5319,0.007552
1826.3955,0.007712
1828.2592,0.007612
1830.1229,0.007794
1831.9865,0.007859
1833.8502,0.007607
1835.7139,0.007519
1837.5776,0.007472
1839.4412,0.007526
1841.3049,0.007611
1843.1686,0.007593
1845.0322,0.007690
1846.8959,0.007707
1848.7596,0.007589
1850.6232,0.007506
1852.4869,0.007427
1854.3506,0.007790
1856.2142,0.008114
1858.0779,0.007993
1859.9416,0.007655
1861.8052,0.007689
1863.6689,0.007775
1865.5326,0.007652
1867.3963,0.007839
1869.2599,0.008094
1871.1236,0.007821
1872.9873,0.007799
1874.8509,0.008033
1876.7146,0.008091
1878.5783,0.008036
1880.4419,0.008003
1882.3056,0.008002
1884.1693,0.008069
1886.0329,0.007837
1887.8966,0.008025
1889.7603,0.008409
1891.6240,0.008409
1893.4876,0.008080
1895.3513,0.008058
1897.2150,0.008428
1899.0786,0.008471
1900.9423,0.008375
1902.8060,0.008508
1904.6696,0.008628
1906.5333,0.008577
1908.3970,0.008427
1910.2606,0.008383
1912.1243,0.008371
1913.9880,0.008473
1915.8516,0.008505
1917.7153,0.008653
1919.5790,0.008630
1921.4427,0.008184
1923.3063,0.008357
1925.1700,0.008786
1927.0337,0.008568
1928.8973,0.008015
1930.7610,0.008020
1932.6247,0.008538
1934.4883,0.008803
1936.3520,0.008534
1938.2157,0.008598
1940.0793,0.008970
1941.9430,0.008839
1943.8067,0.008301
1945.6704,0.008337
1947.5340,0.008907
1949.3977,0.008713
1951.2614,0.008545
1953.1250,0.008890
1954.9887,0.008623
1956.8524,0.008653
1958.7160,0.009255
1960.5797,0.009530
1962.4434,0.008904
1964.3070,0.008750
1966.1707,0.009949
1968.0344,0.009941
1969.8980,0.008661
1971.7617,0.007985
1973.6254,0.008790
1975.4891,0.009298
1977.3527,0.009753
1979.2164,0.010300
1981.0801,0.010047
1982.9437,0.009458
1984.8074,0.008619
1986.6711,0.008455
1988.5347,0.009098
1990.3984,0.010036
1992.2621,0.009929
1994.1257,0.009149
1995.9894,0.009497
1997.8531,0.010296
1999.7167,0.009888
2001.5804,0.008981
2003.4441,0.009046
2005.3078,0.009029
2007.1714,0.009269
2009.0351,0.009783
2010.8988,0.009406
2012.7624,0.009040
2014.6261,0.009484
2016.4898,0.010083
2018.3534,0.009715
2020.2171,0.009816
2022.0808,0.010018
2023.9444,0.009660
2025.8081,0.009373
2027.6718,0.009204
2029.5355,0.009208
2031.3991,0.009415
2033.2628,0.009480
2035.1265,0.009171
2036.9901,0.009413
2038.8538,0.009225
2040.7175,0.009375
2042.5811,0.010001
2044.4448,0.009960
2046.3085,0.009772
2048.1721,0.010073
2050.0358,0.010310
2051.8995,0.010335
2053.7631,0.010111
2055.6268,0.009898
2057.4905,0.010143
2059.3542,0.010299
2061.2178,0.010684
2063.0815,0.010795
2064.9452,0.010510
2066.8088,0.010041
2068.6725,0.009695
2070.5362,0.009876
2072.3998,0.009962
2074.2635,0.010249
2076.1272,0.010390
2077.9908,0.010175
2079.8545,0.010225
2081.7182,0.010123
2083.5819,0.010028
2085.4455,0.010176
2087.3092,0.010277
2089.1729,0.010359
2091.0365,0.010592
2092.9002,0.010482
2094.7639,0.010110
2096.6275,0.010645
2098.4912,0.010690
2100.3549,0.010384
2102.2185,0.010505
2104.0822,0.010635
2105.9459,0.010506
2107.8095,0.010529
2109.6732,0.010741
2111.5369,0.010705
2113.4006,0.010313
2115.2642,0.010687
2117.1279,0.011319
2118.9916,0.011142
2120.8552,0.010704
2122.7189,0.010700
2124.5826,0.010663
2126.4462,0.010045
2128.3099,0.009622
2130.1736,0.009337
2132.0372,0.009214
2133.9009,0.009784
2135.7646,0.010057
2137.6282,0.010670
2139.4919,0.011351
2141.3556,0.011143
2143.2193,0.010526
2145.0829,0.010504
2146.9466,0.010501
2148.8103,0.010154
2150.6739,0.010377
2152.5376,0.010825
2154.4013,0.010172
2156.2649,0.009157
2158.1286,0.009150
2159.9923,0.009462
2161.8559,0.010086
2163.7196,0.011288
2165.5833,0.011071
2167.4470,0.010967
2169.3106,0.010592
2171.1743,0.010061
2173.0380,0.010079
2174.9016,0.010570
2176.7653,0.011109
2178.6290,0.011152
2180.4926,0.011062
2182.3563,0.010951
2184.2200,0.012151
2186.0836,0.011925
2187.9473,0.010931
2189.8110,0.011127
2191.6746,0.011363
2193.5383,0.011280
2195.4020,0.011436
2197.2657,0.011358
2199.1293,0.011007
2200.9930,0.011177
2202.8567,0.011261
2204.7203,0.010923
2206.5840,0.010815
2208.4477,0.011491
2210.3113,0.011863
2212.1750,0.011756
2214.0387,0.011700
2215.9023,0.011683
2217.7660,0.011698
2219.6297,0.011665
2221.4934,0.010923
2223.3570,0.010898
2225.2207,0.011712
2227.0844,0.011838
2228.9480,0.011623
2230.8117,0.011709
2232.6754,0.011765
2234.5390,0.011751
2236.4027,0.011558
2238.2664,0.011405
2240.1300,0.011562
2241.9937,0.011948
2243.8574,0.011892
2245.7210,0.011598
2247.5847,0.011758
2249.4484,0.011769
2251.3121,0.011479
2253.1757,0.011599
2255.0394,0.011700
2256.9031,0.011760
2258.7667,0.012110
2260.6304,0.011872
2262.4941,0.011157
2264.3577,0.011445
2266.2214,0.011747
2268.0851,0.011584
2269.9487,0.011582
2271.8124,0.011665
2273.6761,0.011900
2275.5397,0.012283
2277.4034,0.012373
2279.2671,0.012103
2281.1308,0.012010
2282.9944,0.012162
2284.8581,0.012128
2286.7218,0.012135
2288.5854,0.012257
2290.4491,0.012078
2292.3128,0.011724
2294.1764,0.011698
2296.0401,0.011788
2297.9038,0.012134
2299.7674,0.012468
2301.6311,0.012317
2303.4948,0.011985
2305.3585,0.012166
2307.2221,0.012174
2309.0858,0.011915
2310.9495,0.011991
2312.8131,0.012205
2314.6768,0.012325
2316.5405,0.012299
2318.4041,0.012350
2320.2678,0.012463
2322.1315,0.012663
2323.9951,0.012958
2325.8588,0.012772
2327.7225,0.012276
2329.5861,0.011890
2331.4498,0.011956
2333.3135,0.012163
2335.1772,0.012066
2337.0408,0.012153
2338.9045,0.012451
2340.7682,0.012439
2342.6318,0.012279
2344.4955,0.012148
2346.3592,0.012070
2348.2228,0.011556
2350.0865,0.011091
2351.9502,0.011540
2353.8138,0.012016
2355.6775,0.012113
2357.5412,0.012514
2359.4049,0.012938
2361.2685,0.012388
2363.1322,0.012081
2364.9959,0.012542
2366.8595,0.012735
2368.7232,0.012483
2370.5869,0.012562
2372.4505,0.012679
2374.3142,0.012375
2376.1779,0.011954
2378.0415,0.011771
2379.9052,0.011889
2381.7689,0.012009
2383.6325,0.011905
2385.4962,0.011963
2387.3599,0.012109
2389.2236,0.012066
2391.0872,0.012108
2392.9509,0.012146
2394.8146,0.012198
2396.6782,0.012280
2398.5419,0.012390
2400.4056,0.012577
2402.2692,0.012667
2404.1329,0.012452
2405.9966,0.012280
2407.8602,0.012491
2409.7239,0.012857
2411.5876,0.012848
2413.4512,0.012555
2415.3149,0.012593
2417.1786,0.012595
2419.0423,0.012417
2420.9059,0.012475
2422.7696,0.012872
2424.6333,0.013322
2426.4969,0.013421
2428.3606,0.013324
2430.2243,0.013193
2432.0879,0.013197
2433.9516,0.012924
2435.8153,0.012503
2437.6789,0.012924
2439.5426,0.013234
2441.4063,0.013056
2443.2700,0.013424
2445.1336,0.013435
2446.9973,0.013075
2448.8610,0.012981
2450.7246,0.012960
2452.5883,0.013094
2454.4520,0.013166
2456.3156,0.013115
2458.1793,0.013316
2460.0430,0.013603
2461.9066,0.013657
2463.7703,0.013128
2465.6340,0.013006
2467.4976,0.013335
2469.3613,0.013137
2471.2250,0.012869
2473.0887,0.013062
2474.9523,0.013504
2476.8160,0.013789
2478.6797,0.013881
2480.5433,0.013682
2482.4070,0.013287
2484.2707,0.012942
2486.1343,0.013436
2487.9980,0.014061
2489.8617,0.013786
2491.7253,0.013528
2493.5890,0.013630
2495.4527,0.013856
2497.3164,0.013992
2499.1800,0.014101
2501.0437,0.014134
2502.9074,0.014235
2504.7710,0.014173
2506.6347,0.013933
2508.4984,0.014151
2510.3620,0.014621
2512.2257,0.014689
2514.0894,0.014339
2515.9530,0.014138
2517.8167,0.014301
2519.6804,0.014111
2521.5440,0.014042
2523.4077,0.014552
2525.2714,0.014560
2527.1351,0.014079
2528.9987,0.014203
2530.8624,0.014564
2532.7261,0.014874
2534.5897,0.014704
2536.4534,0.014303
2538.3171,0.014263
2540.1807,0.014075
2542.0444,0.014164
2543.9081,0.014617
2545.7717,0.014901
2547.6354,0.014829
2549.4991,0.014703
2551.3627,0.014670
2553.2264,0.014600
2555.0901,0.014680
2556.9538,0.014779
2558.8174,0.014498
2560.6811,0.014216
2562.5448,0.014645
2564.4084,0.015117
2566.2721,0.014927
2568.1358,0.014651
2569.9994,0.014786
2571.8631,0.015008
2573.7268,0.014839
2575.5904,0.014842
2577.4541,0.014950
2579.3178,0.014822
2581.1815,0.014842
2583.0451,0.014916
2584.9088,0.014981
2586.7725,0.015094
2588.6361,0.015473
2590.4998,0.015590
2592.3635,0.015191
2594.2271,0.015026
2596.0908,0.014942
2597.9545,0.014745
2599.8181,0.015093
2601.6818,0.015498
2603.5455,0.015411
2605.4091,0.015388
2607.2728,0.015399
2609.1365,0.015313
2611.0002,0.015396
2612.8638,0.015447
2614.7275,0.015482
2616.5912,0.015706
2618.4548,0.015780
2620.3185,0.015673
2622.1822,0.015597
2624.0458,0.015389
2625.9095,0.015393
