Wavenumber,Intensity
600.1014,0.025975
601.9651,0.005848
603.8287,-0.005707
605.6924,0.001282
607.5561,0.004122
609.4197,-0.001724
611.2834,-0.002837
613.1471,0.003555
615.0107,0.008633
616.8744,0.008966
618.7381,0.004558
620.6017,0.002269
622.4654,0.005444
624.3291,0.004752
626.1928,0.003454
628.0564,0.000443
629.9201,0.003536
631.7838,0.006990
633.6474,0.005930
635.5111,0.004043
637.3748,0.004223
639.2384,0.004350
641.1021,0.002428
642.9658,0.000675
644.8294,0.001107
646.6931,0.002908
648.5568,0.003728
650.4205,0.004576
652.2841,0.004857
654.1478,0.004426
656.0115,0.004142
657.8751,0.002172
659.7388,0.002251
661.6025,0.003437
663.4661,0.001904
665.3298,0.001305
667.1935,0.006577
669.0571,0.008429
670.9208,0.004041
672.7845,0.002541
674.6481,0.003064
676.5118,0.004344
678.3755,0.004566
680.2392,0.004439
682.1028,0.003909
683.9665,0.003763
685.8302,0.003556
687.6938,0.003752
689.5575,0.004198
691.4212,0.003707
693.2848,0.002767
695.1485,0.002726
697.0122,0.002866
698.8758,0.002369
700.7395,0.001548
702.6032,0.001517
704.4669,0.002641
706.3305,0.002658
708.1942,0.001940
710.0579,0.001846
711.9215,0.001708
713.7852,0.001742
715.6489,0.001780
717.5125,0.001766
719.3762,0.001778
721.2399,0.001643
723.1035,0.001302
724.9672,0.001164
726.8309,0.001448
728.6945,0.001923
730.5582,0.001807
732.4219,0.001104
734.2856,0.001130
736.1492,0.001560
738.0129,0.001655
739.8766,0.001787
741.7402,0.001811
743.6039,0.001772
745.4676,0.001544
747.3312,0.001436
749.1949,0.001620
751.0586,0.001722
752.9222,0.001590
754.7859,0.001253
756.6496,0.001245
758.5132,0.001793
760.3769,0.002028
762.2406,0.002040
764.1043,0.002091
765.9679,0.001918
767.8316,0.001635
769.6953,0.001812
771.5589,0.002303
773.4226,0.002494
775.2863,0.002592
777.1499,0.002515
779.0136,0.002493
780.8773,0.002340
782.7409,0.002248
784.6046,0.002151
786.4683,0.002252
788.3320,0.002399
790.1956,0.002383
792.0593,0.002387
793.9230,0.002573
795.7866,0.002399
797.6503,0.002002
799.5140,0.002029
801.3776,0.002041
803.2413,0.002090
805.1050,0.001804
806.9686,0.001450
808.8323,0.001500
810.6960,0.001649
812.5596,0.001619
814.4233,0.001361
816.2870,0.001214
818.1507,0.001197
820.0143,0.001189
821.8780,0.001247
823.7417,0.001328
825.6053,0.001332
827.4690,0.001338
829.3327,0.001476
831.1963,0.001679
833.0600,0.001627
834.9237,0.001504
836.7873,0.001423
838.6510,0.001227
840.5147,0.001144
842.3784,0.001081
844.2420,0.001157
846.1057,0.001263
847.9694,0.001294
849.8330,0.001379
851.6967,0.001264
853.5604,0.001301
855.4240,0.001540
857.2877,0.001467
859.1514,0.001371
861.0150,0.001577
862.8787,0.001538
864.7424,0.001319
866.6060,0.001290
868.4697,0.001373
870.3334,0.001605
872.1971,0.001685
874.0607,0.001532
875.9244,0.001442
877.7881,0.001460
879.6517,0.001668
881.5154,0.001884
883.3791,0.001798
885.2427,0.001729
887.1064,0.001745
888.9701,0.001759
890.8337,0.001858
892.6974,0.001981
894.5611,0.001919
896.4247,0.001926
898.2884,0.002038
900.1521,0.002083
902.0158,0.002103
903.8794,0.002007
905.7431,0.002042
907.6068,0.002168
909.4704,0.002192
911.3341,0.002249
913.1978,0.002358
915.0614,0.002383
916.9251,0.002312
918.7888,0.002252
920.6524,0.002334
922.5161,0.002447
924.3798,0.002456
926.2435,0.002452
928.1071,0.002513
929.9708,0.002596
931.8345,0.002695
933.6981,0.002821
935.5618,0.002847
937.4255,0.002912
939.2891,0.002966
941.1528,0.002849
943.0165,0.002931
944.8801,0.003146
946.7438,0.003211
948.6075,0.003095
950.4711,0.002955
952.3348,0.002863
954.1985,0.002803
956.0622,0.002767
957.9258,0.002717
959.7895,0.002666
961.6532,0.002570
963.5168,0.002647
965.3805,0.002768
967.2442,0.002752
969.1078,0.002787
970.9715,0.002816
972.8352,0.002858
974.6988,0.002946
976.5625,0.003025
978.4262,0.003057
980.2899,0.003124
982.1535,0.003203
984.0172,0.003278
985.8809,0.003264
987.7445,0.003289
989.6082,0.003436
991.4719,0.003531
993.3355,0.003534
995.1992,0.003644
997.0629,0.003766
998.9265,0.003791
1000.7902,0.003830
1002.6539,0.003979
1004.5175,0.004001
1006.3812,0.004051
1008.2449,0.004167
1010.1086,0.004153
1011.9722,0.004201
1013.8359,0.004304
1015.6996,0.004296
1017.5632,0.004263
1019.4269,0.004374
1021.2906,0.004516
1023.1542,0.004561
1025.0179,0.004532
1026.8816,0.004553
1028.7452,0.004585
1030.6089,0.004570
1032.4726,0.004632
1034.3362,0.004713
1036.1999,0.004803
1038.0636,0.004931
1039.9273,0.004935
1041.7909,0.004864
1043.6546,0.004860
1045.5183,0.004919
1047.3819,0.004878
1049.2456,0.004831
1051.1093,0.004834
1052.9729,0.004842
1054.8366,0.004762
1056.7003,0.004707
1058.5639,0.004714
1060.4276,0.004685
1062.2913,0.004602
1064.1550,0.004494
1066.0186,0.004503
1067.8823,0.004500
1069.7460,0.004474
1071.6096,0.004408
1073.4733,0.004345
1075.3370,0.004304
1077.2006,0.004226
1079.0643,0.004200
1080.9280,0.004174
1082.7916,0.004082
1084.6553,0.004007
1086.5190,0.004028
1088.3826,0.004053
1090.2463,0.003947
1092.1100,0.003846
1093.9737,0.003826
1095.8373,0.003894
1097.7010,0.003864
1099.5647,0.003852
1101.4283,0.003795
1103.2920,0.003670
1105.1557,0.003526
1107.0193,0.003418
1108.8830,0.003367
1110.7467,0.003321
1112.6103,0.003309
1114.4740,0.003254
1116.3377,0.003217
1118.2014,0.003355
1120.0650,0.003412
1121.9287,0.003288
1123.7924,0.003118
1125.6560,0.002967
1127.5197,0.002932
1129.3834,0.002962
1131.2470,0.002894
1133.1107,0.002785
1134.9744,0.002668
1136.8380,0.002592
1138.7017,0.002530
1140.5654,0.002485
1142.4290,0.002511
1144.2927,0.002476
1146.1564,0.002362
1148.0201,0.002304
1149.8837,0.002291
1151.7474,0.002206
1153.6111,0.002064
1155.4747,0.002080
1157.3384,0.002081
1159.2021,0.002017
1161.0657,0.002089
1162.9294,0.002118
1164.7931,0.002063
1166.6567,0.002006
1168.5204,0.001955
1170.3841,0.001869
1172.2477,0.001817
1174.1114,0.001810
1175.9751,0.001779
1177.8388,0.001748
1179.7024,0.001708
1181.5661,0.001612
1183.4298,0.001508
1185.2934,0.001450
1187.1571,0.001447
1189.0208,0.001421
1190.8844,0.001346
1192.7481,0.001305
1194.6118,0.001292
1196.4754,0.001250
1198.3391,0.001178
1200.2028,0.001135
1202.0665,0.001192
1203.9301,0.001197
1205.7938,0.001125
1207.6575,0.001092
1209.5211,0.001022
1211.3848,0.001016
1213.2485,0.001065
1215.1121,0.001003
1216.9758,0.000916
1218.8395,0.000892
1220.7031,0.000838
1222.5668,0.000797
1224.4305,0.000798
1226.2941,0.000776
1228.1578,0.000685
1230.0215,0.000639
1231.8852,0.000681
1233.7488,0.000716
1235.6125,0.000704
1237.4762,0.000603
1239.3398,0.000541
1241.2035,0.000515
1243.0672,0.000531
1244.9308,0.000521
1246.7945,0.000391
1248.6582,0.000334
1250.5218,0.000367
1252.3855,0.000279
1254.2492,0.000221
1256.1129,0.000281
1257.9765,0.000322
1259.8402,0.000311
1261.7039,0.000303
1263.5675,0.000270
1265.4312,0.000192
1267.2949,0.000192
1269.1585,0.000221
1271.0222,0.000206
1272.8859,0.000163
1274.7495,0.000102
1276.6132,0.000125
1278.4769,0.000185
1280.3405,0.000106
1282.2042,0.000048
1284.0679,0.000081
1285.9316,0.000074
1287.7952,0.000127
1289.6589,0.000189
1291.5226,0.000147
1293.3862,0.000083
1295.2499,0.000084
1297.1136,0.000057
1298.9772,0.000013
1300.8409,0.000061
1302.7046,0.000039
1304.5682,0.000006
1306.4319,-0.000019
1308.2956,-0.000034
1310.1592,0.000036
1312.0229,0.000183
1313.8866,0.000221
1315.7503,0.000155
1317.6139,0.000154
1319.4776,0.000125
1321.3413,0.000086
1323.2049,0.000067
1325.0686,0.000055
1326.9323,0.000118
1328.7959,0.000137
1330.6596,0.000083
1332.5233,0.000087
1334.3869,0.000080
1336.2506,0.000067
1338.1143,0.000197
1339.9780,0.000297
1341.8416,0.000081
1343.7053,0.000011
1345.5690,-0.000007
1347.4326,-0.000070
1349.2963,-0.000006
1351.1600,0.000088
1353.0236,0.000095
1354.8873,0.000011
1356.7510,0.000002
1358.6146,0.000006
1360.4783,0.000017
1362.3420,0.000371
1364.2056,0.000449
1366.0693,0.000164
1367.9330,0.000147
1369.7967,0.000098
1371.6603,-0.000044
1373.5240,0.000009
1375.3877,0.000079
1377.2513,0.000136
1379.1150,0.000268
1380.9787,0.000101
1382.8423,0.000072
1384.7060,0.000087
1386.5697,0.000342
1388.4333,0.000366
1390.2970,0.000142
1392.1607,0.000036
1394.0244,0.000216
1395.8880,0.000256
1397.7517,0.000244
1399.6154,0.000410
1401.4790,0.000092
1403.3427,0.000113
1405.2064,0.000260
1407.0700,0.000226
1408.9337,0.000085
1410.7974,0.000089
1412.6610,0.000037
1414.5247,0.000043
1416.3884,0.000084
1418.2520,0.000279
1420.1157,0.000400
1421.9794,0.000216
1423.8431,0.000326
1425.7067,0.000176
1427.5704,0.000005
1429.4341,0.000154
1431.2977,0.000306
1433.1614,0.000022
1435.0251,-0.000151
1436.8887,0.000249
1438.7524,0.000152
1440.6161,0.000159
1442.4797,0.000067
1444.3434,0.000023
1446.2071,0.000069
1448.0707,0.000205
1449.9344,0.000097
1451.7981,0.000115
1453.6618,-0.000114
1455.5254,-0.000137
1457.3891,0.000614
1459.2528,0.000686
1461.1164,0.000286
1462.9801,-0.000088
1464.8438,0.000130
1466.7074,0.000151
1468.5711,-0.000016
1470.4348,-0.000217
1472.2984,0.000186
1474.1621,0.000190
1476.0258,0.000348
1477.8895,0.000125
1479.7531,0.000077
1481.6168,0.000151
1483.4805,-0.000012
1485.3441,-0.000026
1487.2078,-0.000025
1489.0715,0.000090
1490.9351,0.000543
1492.7988,0.000219
1494.6625,0.000049
1496.5261,0.000238
1498.3898,0.000297
1500.2535,0.000257
1502.1171,-0.000032
1503.9808,-0.000443
1505.8445,-0.000015
1507.7082,0.000993
1509.5718,0.000857
1511.4355,0.000494
1513.2992,0.000097
1515.1628,0.000113
1517.0265,0.000385
1518.8902,0.000040
1520.7538,0.000490
1522.6175,0.000588
1524.4812,0.000201
1526.3448,0.000197
1528.2085,0.000329
1530.0722,0.000243
1531.9359,-0.000160
1533.7995,0.000215
1535.6632,0.000188
1537.5269,-0.000061
1539.3905,-0.000098
1541.2542,0.000237
1543.1179,0.000488
1544.9815,0.000592
1546.8452,0.000240
1548.7089,0.000298
1550.5725,0.000404
1552.4362,0.000046
1554.2999,0.000073
1556.1635,-0.000619
1558.0272,-0.000474
1559.8909,0.000994
1561.7546,0.000637
1563.6182,0.000231
1565.4819,0.000111
1567.3456,-0.000070
1569.2092,0.000136
1571.0729,0.000266
1572.9366,0.000026
1574.8002,-0.000113
1576.6639,0.000188
1578.5276,0.000017
1580.3912,-0.000109
1582.2549,-0.000174
1584.1186,-0.000153
1585.9822,-0.000177
1587.8459,-0.000170
1589.7096,-0.000118
1591.5733,-0.000102
1593.4369,-0.000204
1595.3006,-0.000307
1597.1643,-0.000247
1599.0279,-0.000227
1600.8916,-0.000179
1602.7553,-0.000060
1604.6189,-0.000125
1606.4826,-0.000273
1608.3463,-0.000139
1610.2099,-0.000100
1612.0736,-0.000052
1613.9373,-0.000266
1615.8010,-0.000089
1617.6646,0.000027
1619.5283,-0.000158
1621.3920,-0.000180
1623.2556,0.000069
1625.1193,0.000094
1626.9830,0.000180
1628.8466,0.000050
1630.7103,-0.000132
1632.5740,-0.000328
1634.4376,-0.000343
1636.3013,0.000139
1638.1650,0.000354
1640.0286,0.000237
1641.8923,-0.000153
1643.7560,-0.000373
1645.6197,-0.000362
1647.4833,0.000173
1649.3470,-0.000075
1651.2107,-0.000652
1653.0743,-0.000167
1654.9380,0.000224
1656.8017,0.000117
1658.6653,-0.000052
1660.5290,-0.000160
1662.3927,0.000033
1664.2563,0.000019
1666.1200,-0.000088
1667.9837,-0.000152
1669.8474,0.000099
1671.7110,-0.000007
1673.5747,-0.000227
1675.4384,0.000070
1677.3020,-0.000036
1679.1657,0.000060
1681.0294,-0.000184
1682.8930,-0.000370
1684.7567,0.000530
1686.6204,0.000403
1688.4840,0.000257
1690.3477,0.000003
1692.2114,-0.000209
1694.0750,-0.000488
1695.9387,0.000050
1697.8024,-0.000039
1699.6661,0.000529
1701.5297,0.000292
1703.3934,0.000122
1705.2571,0.000135
1707.1207,-0.000046
1708.9844,0.000000
1710.8481,-0.000096
1712.7117,-0.000256
1714.5754,-0.000053
1716.4391,0.000281
1718.3027,0.000564
1720.1664,0.000172
1722.0301,0.000055
1723.8937,-0.000074
1725.7574,-0.000153
1727.6211,-0.000140
1729.4848,0.000141
1731.3484,0.000002
1733.2121,0.000069
1735.0758,0.000411
1736.9394,0.000171
1738.8031,0.000043
1740.6668,-0.000227
1742.5304,0.000089
1744.3941,0.000231
1746.2578,0.000246
1748.1214,0.000028
1749.9851,-0.000231
1751.8488,0.000056
1753.7125,-0.000087
1755.5761,-0.000095
1757.4398,-0.000031
1759.3035,-0.000201
1761.1671,-0.000006
1763.0308,0.000197
1764.8945,0.000016
1766.7581,-0.000152
1768.6218,-0.000263
1770.4855,-0.000240
1772.3491,0.000248
1774.2128,0.000127
1776.0765,-0.000068
1777.9401,-0.000302
1779.8038,-0.000164
1781.6675,-0.000268
1783.5312,-0.000285
1785.3948,-0.000129
1787.2585,-0.000262
1789.1222,-0.000262
1790.9858,0.000024
1792.8495,0.000139
1794.7132,-0.000170
1796.5768,-0.000283
1798.4405,-0.000287
1800.3042,-0.000141
1802.1678,0.000000
1804.0315,0.000056
1805.8952,-0.000043
1807.7589,-0.000214
1809.6225,-0.000307
1811.4862,-0.000239
1813.3499,-0.000279
1815.2135,-0.000247
1817.0772,-0.000066
1818.9409,-0.000122
1820.8045,-0.000338
1822.6682,-0.000446
1824.5319,-0.000336
1826.3955,-0.000299
1828.2592,-0.000313
1830.1229,0.000007
1831.9865,-0.000193
1833.8502,-0.000443
1835.7139,-0.000349
1837.5776,-0.000101
1839.4412,-0.000257
1841.3049,-0.000324
1843.1686,-0.000171
1845.0322,-0.000374
1846.8959,-0.000557
1848.7596,-0.000233
1850.6232,-0.000181
1852.4869,-0.000335
1854.3506,-0.000577
1856.2142,-0.000260
1858.0779,-0.000139
1859.9416,-0.000233
1861.8052,-0.000171
1863.6689,-0.000244
1865.5326,-0.000549
1867.3963,-0.000372
1869.2599,0.000026
1871.1236,-0.000037
1872.9873,-0.000458
1874.8509,-0.000629
1876.7146,-0.000362
1878.5783,-0.000242
1880.4419,-0.000254
1882.3056,-0.000419
1884.1693,-0.000680
1886.0329,-0.000447
1887.8966,-0.000370
1889.7603,-0.000294
1891.6240,-0.000334
1893.4876,-0.000539
1895.3513,-0.000588
1897.2150,-0.000296
1899.0786,-0.000146
1900.9423,-0.000124
1902.8060,-0.000229
1904.6696,-0.000221
1906.5333,-0.000278
1908.3970,-0.000451
1910.2606,-0.000522
1912.1243,-0.000533
1913.9880,-0.000526
1915.8516,-0.000371
1917.7153,-0.000133
1919.5790,-0.000188
1921.4427,-0.000588
1923.3063,-0.000494
1925.1700,0.000004
1927.0337,-0.000205
1928.8973,-0.000765
1930.7610,-0.000527
1932.6247,-0.000762
1934.4883,-0.001022
1936.3520,-0.000815
1938.2157,-0.000543
1940.0793,-0.000428
1941.9430,-0.000185
1943.8067,-0.000069
1945.6704,0.000007
1947.5340,-0.000203
1949.3977,-0.000542
1951.2614,-0.000834
1953.1250,-0.000999
1954.9887,-0.001051
1956.8524,-0.000882
1958.7160,-0.000450
1960.5797,-0.000056
1962.4434,-0.000063
1964.3070,-0.000235
1966.1707,-0.000371
1968.0344,0.000107
1969.8980,0.000325
1971.7617,-0.000175
1973.6254,-0.000740
1975.4891,-0.000718
1977.3527,-0.000401
1979.2164,-0.000555
1981.0801,-0.000554
1982.9437,0.000087
1984.8074,0.000130
1986.6711,-0.000561
1988.5347,-0.001051
1990.3984,-0.001109
1992.2621,-0.000659
1994.1257,0.000000
1995.9894,-0.000179
1997.8531,-0.000756
1999.7167,-0.000866
2001.5804,-0.000366
2003.4441,-0.000402
2005.3078,-0.000630
2007.1714,-0.000745
2009.0351,-0.001420
2010.8988,-0.001528
2012.7624,-0.000792
2014.6261,-0.000822
2016.4898,-0.001138
2018.3534,-0.001041
2020.2171,-0.000732
2022.0808,-0.000879
2023.9444,-0.001217
2025.8081,-0.000691
2027.6718,-0.000231
2029.5355,-0.000799
2031.3991,-0.000971
2033.2628,-0.000427
2035.1265,0.000026
2036.9901,0.000128
2038.8538,-0.000340
2040.7175,-0.000724
2042.5811,-0.000827
2044.4448,-0.001155
2046.3085,-0.001064
2048.1721,-0.000651
2050.0358,-0.000659
2051.8995,-0.000971
2053.7631,-0.001078
2055.6268,-0.000940
2057.4905,-0.000636
2059.3542,-0.000710
2061.2178,-0.000775
2063.0815,-0.000687
2064.9452,-0.000566
2066.8088,-0.000667
2068.6725,-0.001315
2070.5362,-0.001564
2072.3998,-0.001065
2074.2635,-0.001049
2076.1272,-0.001221
2077.9908,-0.000921
2079.8545,-0.000798
2081.7182,-0.000743
2083.5819,-0.000696
2085.4455,-0.000802
2087.3092,-0.000632
2089.1729,-0.000830
2091.0365,-0.001001
2092.9002,-0.000787
2094.7639,-0.000669
2096.6275,-0.000470
2098.4912,-0.000439
2100.3549,-0.000595
2102.2185,-0.000345
2104.0822,-0.000456
2105.9459,-0.000854
2107.8095,-0.000808
2109.6732,-0.000781
2111.5369,-0.001012
2113.4006,-0.001102
2115.2642,-0.000960
2117.1279,-0.000630
2118.9916,-0.000947
2120.8552,-0.001232
2122.7189,-0.000948
2124.5826,-0.000907
2126.4462,-0.000655
2128.3099,-0.000216
2130.1736,-0.000351
2132.0372,-0.000807
2133.9009,-0.000727
2135.7646,-0.000607
2137.6282,-0.001104
2139.4919,-0.001195
2141.3556,-0.001389
2143.2193,-0.001229
2145.0829,-0.000708
2146.9466,-0.000847
2148.8103,-0.001178
2150.6739,-0.001264
2152.5376,-0.000841
2154.4013,-0.000539
2156.2649,-0.001014
2158.1286,-0.001250
2159.9923,-0.000989
2161.8559,-0.000782
2163.7196,-0.000808
2165.5833,-0.000734
2167.4470,-0.001265
2169.3106,-0.001729
2171.1743,-0.001182
2173.0380,-0.000610
2174.9016,-0.000982
2176.7653,-0.002502
2178.6290,-0.003304
2180.4926,-0.002047
2182.3563,-0.000979
2184.2200,-0.000387
2186.0836,0.000054
2187.9473,-0.000706
2189.8110,-0.001516
2191.6746,-0.001015
2193.5383,0.000126
2195.4020,0.000411
2197.2657,-0.000244
2199.1293,-0.000660
2200.9930,-0.000876
2202.8567,-0.001296
2204.7203,-0.001601
2206.5840,-0.001124
2208.4477,-0.000869
2210.3113,-0.001225
2212.1750,-0.001154
2214.0387,-0.001138
2215.9023,-0.001312
2217.7660,-0.001218
2219.6297,-0.001190
2221.4934,-0.001560
2223.3570,-0.001671
2225.2207,-0.001163
2227.0844,-0.001145
2228.9480,-0.001338
2230.8117,-0.001130
2232.6754,-0.000891
2234.5390,-0.000733
2236.4027,-0.000650
2238.2664,-0.000874
2240.1300,-0.001245
2241.9937,-0.000882
2243.8574,-0.000231
2245.7210,-0.000682
2247.5847,-0.001253
2249.4484,-0.001098
2251.3121,-0.000956
2253.1757,-0.000890
2255.0394,-0.000792
2256.9031,-0.000789
2258.7667,-0.000716
2260.6304,-0.000550
2262.4941,-0.000359
2264.3577,-0.000211
2266.2214,-0.000130
2268.0851,-0.000394
2269.9487,-0.000477
2271.8124,-0.000571
2273.6761,-0.000754
2275.5397,-0.000624
2277.4034,-0.000700
2279.2671,-0.000923
2281.1308,-0.000936
2282.9944,-0.000507
2284.8581,0.000133
2286.7218,0.000168
2288.5854,-0.000385
2290.4491,-0.000561
2292.3128,-0.000242
2294.1764,0.000040
2296.0401,0.000281
2297.9038,0.000486
2299.7674,0.000656
2301.6311,0.000907
2303.4948,0.001253
2305.3585,0.001688
2307.2221,0.002010
2309.0858,0.002305
2310.9495,0.002805
2312.8131,0.003165
2314.6768,0.003533
2316.5405,0.004160
2318.4041,0.004725
2320.2678,0.005307
2322.1315,0.006102
2323.9951,0.006792
2325.8588,0.007149
2327.7225,0.007175
2329.5861,0.007252
2331.4498,0.007569
2333.3135,0.007966
2335.1772,0.008191
2337.0408,0.008052
2338.9045,0.008249
2340.7682,0.008612
2342.6318,0.008636
2344.4955,0.008352
2346.3592,0.007450
2348.2228,0.005863
2350.0865,0.005558
2351.9502,0.007050
2353.8138,0.008469
2355.6775,0.009229
2357.5412,0.010269
2359.4049,0.011660
2361.2685,0.012299
2363.1322,0.012238
2364.9959,0.011493
2366.8595,0.010260
2368.7232,0.009213
2370.5869,0.008559
2372.4505,0.007475
2374.3142,0.006193
2376.1779,0.005296
2378.0415,0.004095
2379.9052,0.002437
2381.7689,0.001010
2383.6325,0.000162
2385.4962,-0.000249
2387.3599,-0.000578
2389.2236,-0.000867
2391.0872,-0.000886
2392.9509,-0.000926
2394.8146,-0.001226
2396.6782,-0.001080
2398.5419,-0.000794
2400.4056,-0.000946
2402.2692,-0.001041
2404.1329,-0.000967
2405.9966,-0.001070
2407.8602,-0.001105
2409.7239,-0.000788
2411.5876,-0.000549
2413.4512,-0.000880
2415.3149,-0.001239
2417.1786,-0.001079
2419.0423,-0.000679
2420.9059,-0.000725
2422.7696,-0.001195
2424.6333,-0.001252
2426.4969,-0.000975
2428.3606,-0.001025
2430.2243,-0.001086
2432.0879,-0.000882
2433.9516,-0.000798
2435.8153,-0.000970
2437.6789,-0.001203
2439.5426,-0.001276
2441.4063,-0.001123
2443.2700,-0.001106
2445.1336,-0.001242
2446.9973,-0.001057
2448.8610,-0.000897
2450.7246,-0.001029
2452.5883,-0.001014
2454.4520,-0.000759
2456.3156,-0.000545
2458.1793,-0.000731
2460.0430,-0.001044
2461.9066,-0.001139
2463.7703,-0.000980
2465.6340,-0.000929
2467.4976,-0.000870
2469.3613,-0.000845
2471.2250,-0.001161
2473.0887,-0.001298
2474.9523,-0.000922
2476.8160,-0.000882
2478.6797,-0.001225
2480.5433,-0.001406
2482.4070,-0.001169
2484.2707,-0.000835
2486.1343,-0.000830
2487.9980,-0.000961
2489.8617,-0.000829
2491.7253,-0.000808
2493.5890,-0.001214
2495.4527,-0.001413
2497.3164,-0.001082
2499.1800,-0.000865
2501.0437,-0.000833
2502.9074,-0.000704
2504.7710,-0.000911
2506.6347,-0.001325
2508.4984,-0.001544
2510.3620,-0.001559
2512.2257,-0.001312
2514.0894,-0.001246
2515.9530,-0.001225
2517.8167,-0.000895
2519.6804,-0.000747
2521.5440,-0.000676
2523.4077,-0.000608
2525.2714,-0.000855
2527.1351,-0.001305
2528.9987,-0.001417
2530.8624,-0.001049
2532.7261,-0.000981
2534.5897,-0.001041
2536.4534,-0.001041
