Wavenumber,Intensity
600.1014,0.036213
601.9651,0.032621
603.8287,0.029581
605.6924,0.030216
607.5561,0.029978
609.4197,0.028695
611.2834,0.034053
613.1471,0.035762
615.0107,0.035833
616.8744,0.031560
618.7381,0.025458
620.6017,0.026589
622.4654,0.030887
624.3291,0.032204
626.1928,0.031274
628.0564,0.029822
629.9201,0.028878
631.7838,0.027499
633.6474,0.024792
635.5111,0.023432
637.3748,0.024553
639.2384,0.025861
641.1021,0.026349
642.9658,0.025880
644.8294,0.027335
646.6931,0.028929
648.5568,0.027720
650.4205,0.024476
652.2841,0.023542
654.1478,0.023656
656.0115,0.023823
657.8751,0.024924
659.7388,0.024374
661.6025,0.023704
663.4661,0.023709
665.3298,0.024732
667.1935,0.027537
669.0571,0.027567
670.9208,0.024651
672.7845,0.024652
674.6481,0.023283
676.5118,0.023732
678.3755,0.025459
680.2392,0.025349
682.1028,0.024751
683.9665,0.024970
685.8302,0.025191
687.6938,0.025608
689.5575,0.026401
691.4212,0.027842
693.2848,0.029394
695.1485,0.030478
697.0122,0.029182
698.8758,0.026608
700.7395,0.025142
702.6032,0.024367
704.4669,0.024063
706.3305,0.024063
708.1942,0.023740
710.0579,0.023252
711.9215,0.022631
713.7852,0.022355
715.6489,0.022303
717.5125,0.021882
719.3762,0.022300
721.2399,0.022628
723.1035,0.022083
724.9672,0.022053
726.8309,0.022133
728.6945,0.021937
730.5582,0.021844
732.4219,0.022155
734.2856,0.022217
736.1492,0.022195
738.0129,0.022113
739.8766,0.022229
741.7402,0.022048
743.6039,0.022068
745.4676,0.022226
747.3312,0.022217
749.1949,0.022526
751.0586,0.023038
752.9222,0.023258
754.7859,0.023752
756.6496,0.024582
758.5132,0.024733
760.3769,0.024903
762.2406,0.025353
764.1043,0.025859
765.9679,0.027001
767.8316,0.028552
769.6953,0.030182
771.5589,0.032430
773.4226,0.034858
775.2863,0.036939
777.1499,0.038796
779.0136,0.039986
780.8773,0.039617
782.7409,0.037945
784.6046,0.036114
786.4683,0.034786
788.3320,0.034159
790.1956,0.034589
792.0593,0.036015
793.9230,0.037879
795.7866,0.039366
797.6503,0.039590
799.5140,0.038351
801.3776,0.036275
803.2413,0.033379
805.1050,0.030065
806.9686,0.026525
808.8323,0.023592
810.6960,0.021493
812.5596,0.020139
814.4233,0.019290
816.2870,0.018298
818.1507,0.017314
820.0143,0.016898
821.8780,0.016709
823.7417,0.016456
825.6053,0.016294
827.4690,0.016111
829.3327,0.016192
831.1963,0.016242
833.0600,0.016026
834.9237,0.016064
836.7873,0.016093
838.6510,0.015952
840.5147,0.015936
842.3784,0.015950
844.2420,0.015972
846.1057,0.015967
847.9694,0.016049
849.8330,0.016163
851.6967,0.016187
853.5604,0.016260
855.4240,0.016217
857.2877,0.016244
859.1514,0.016353
861.0150,0.016544
862.8787,0.016688
864.7424,0.016782
866.6060,0.016890
868.4697,0.016984
870.3334,0.017257
872.1971,0.017418
874.0607,0.017465
875.9244,0.017649
877.7881,0.017836
879.6517,0.017841
881.5154,0.017578
883.3791,0.017429
885.2427,0.017437
887.1064,0.017400
888.9701,0.017442
890.8337,0.017509
892.6974,0.017545
894.5611,0.017692
896.4247,0.017915
898.2884,0.018087
900.1521,0.018301
902.0158,0.018462
903.8794,0.018546
905.7431,0.018626
907.6068,0.018778
909.4704,0.018938
911.3341,0.019155
913.1978,0.019360
915.0614,0.019538
916.9251,0.019772
918.7888,0.019979
920.6524,0.020179
922.5161,0.020357
924.3798,0.020499
926.2435,0.020620
928.1071,0.020815
929.9708,0.021034
931.8345,0.021363
933.6981,0.021725
935.5618,0.021974
937.4255,0.022239
939.2891,0.022638
941.1528,0.022991
943.0165,0.023302
944.8801,0.023623
946.7438,0.024154
948.6075,0.024642
950.4711,0.024737
952.3348,0.024675
954.1985,0.024547
956.0622,0.024389
957.9258,0.024387
959.7895,0.024631
961.6532,0.024849
963.5168,0.024932
965.3805,0.025138
967.2442,0.025536
969.1078,0.025920
970.9715,0.026193
972.8352,0.026477
974.6988,0.026828
976.5625,0.027161
978.4262,0.027632
980.2899,0.028132
982.1535,0.028581
984.0172,0.029134
985.8809,0.029693
987.7445,0.030049
989.6082,0.030481
991.4719,0.031020
993.3355,0.031536
995.1992,0.032124
997.0629,0.032655
998.9265,0.033133
1000.7902,0.033590
1002.6539,0.034163
1004.5175,0.034698
1006.3812,0.035186
1008.2449,0.035812
1010.1086,0.036444
1011.9722,0.037044
1013.8359,0.037644
1015.6996,0.038204
1017.5632,0.038852
1019.4269,0.039589
1021.2906,0.040278
1023.1542,0.040982
1025.0179,0.041754
1026.8816,0.042546
1028.7452,0.043344
1030.6089,0.044158
1032.4726,0.044917
1034.3362,0.045717
1036.1999,0.046700
1038.0636,0.047658
1039.9273,0.048595
1041.7909,0.049493
1043.6546,0.050296
1045.5183,0.051158
1047.3819,0.052091
1049.2456,0.052883
1051.1093,0.053508
1052.9729,0.054097
1054.8366,0.054699
1056.7003,0.055398
1058.5639,0.056056
1060.4276,0.056613
1062.2913,0.057011
1064.1550,0.057337
1066.0186,0.057615
1067.8823,0.057655
1069.7460,0.057506
1071.6096,0.057392
1073.4733,0.057414
1075.3370,0.057444
1077.2006,0.057399
1079.0643,0.057190
1080.9280,0.056888
1082.7916,0.056556
1084.6553,0.056062
1086.5190,0.055452
1088.3826,0.054630
1090.2463,0.053721
1092.1100,0.052859
1093.9737,0.051960
1095.8373,0.051000
1097.7010,0.050051
1099.5647,0.049009
1101.4283,0.047830
1103.2920,0.046766
1105.1557,0.045734
1107.0193,0.044683
1108.8830,0.043759
1110.7467,0.042809
1112.6103,0.041828
1114.4740,0.040980
1116.3377,0.040356
1118.2014,0.039794
1120.0650,0.039059
1121.9287,0.038135
1123.7924,0.037174
1125.6560,0.036210
1127.5197,0.035179
1129.3834,0.034245
1131.2470,0.033383
1133.1107,0.032648
1134.9744,0.031965
1136.8380,0.031074
1138.7017,0.030299
1140.5654,0.029704
1142.4290,0.029115
1144.2927,0.028551
1146.1564,0.027957
1148.0201,0.027384
1149.8837,0.026837
1151.7474,0.026393
1153.6111,0.026073
1155.4747,0.025864
1157.3384,0.025867
1159.2021,0.026179
1161.0657,0.026671
1162.9294,0.027017
1164.7931,0.026856
1166.6567,0.026154
1168.5204,0.025336
1170.3841,0.024592
1172.2477,0.023924
1174.1114,0.023294
1175.9751,0.022792
1177.8388,0.022410
1179.7024,0.021952
1181.5661,0.021397
1183.4298,0.021064
1185.2934,0.020865
1187.1571,0.020523
1189.0208,0.020102
1190.8844,0.019766
1192.7481,0.019391
1194.6118,0.019038
1196.4754,0.018621
1198.3391,0.018207
1200.2028,0.017740
1202.0665,0.017212
1203.9301,0.016671
1205.7938,0.016134
1207.6575,0.015558
1209.5211,0.014961
1211.3848,0.014320
1213.2485,0.013654
1215.1121,0.013057
1216.9758,0.012444
1218.8395,0.011777
1220.7031,0.011158
1222.5668,0.010573
1224.4305,0.010026
1226.2941,0.009590
1228.1578,0.009193
1230.0215,0.008820
1231.8852,0.008584
1233.7488,0.008376
1235.6125,0.008087
1237.4762,0.007818
1239.3398,0.007639
1241.2035,0.007509
1243.0672,0.007347
1244.9308,0.007111
1246.7945,0.006979
1248.6582,0.006870
1250.5218,0.006610
1252.3855,0.006343
1254.2492,0.006207
1256.1129,0.006088
1257.9765,0.005948
1259.8402,0.005865
1261.7039,0.005780
1263.5675,0.005635
1265.4312,0.005477
1267.2949,0.005376
1269.1585,0.005328
1271.0222,0.005292
1272.8859,0.005279
1274.7495,0.005237
1276.6132,0.005141
1278.4769,0.005103
1280.3405,0.005012
1282.2042,0.004877
1284.0679,0.004861
1285.9316,0.004784
1287.7952,0.004789
1289.6589,0.004772
1291.5226,0.004770
1293.3862,0.004771
1295.2499,0.004621
1297.1136,0.004450
1298.9772,0.004427
1300.8409,0.004462
1302.7046,0.004397
1304.5682,0.004353
1306.4319,0.004318
1308.2956,0.004308
1310.1592,0.004256
1312.0229,0.004235
1313.8866,0.004323
1315.7503,0.004327
1317.6139,0.004293
1319.4776,0.004306
1321.3413,0.004283
1323.2049,0.004241
1325.0686,0.004178
1326.9323,0.004139
1328.7959,0.004147
1330.6596,0.004095
1332.5233,0.004025
1334.3869,0.004005
1336.2506,0.004025
1338.1143,0.004078
1339.9780,0.004188
1341.8416,0.004157
1343.7053,0.004051
1345.5690,0.004027
1347.4326,0.004039
1349.2963,0.004099
1351.1600,0.004081
1353.0236,0.003963
1354.8873,0.003982
1356.7510,0.004033
1358.6146,0.004031
1360.4783,0.003969
1362.3420,0.004146
1364.2056,0.004305
1366.0693,0.004064
1367.9330,0.004032
1369.7967,0.004046
1371.6603,0.003941
1373.5240,0.004035
1375.3877,0.004220
1377.2513,0.004242
1379.1150,0.004221
1380.9787,0.004106
1382.8423,0.004100
1384.7060,0.004027
1386.5697,0.004163
1388.4333,0.004348
1390.2970,0.004278
1392.1607,0.004123
1394.0244,0.004223
1395.8880,0.004348
1397.7517,0.004276
1399.6154,0.004386
1401.4790,0.004134
1403.3427,0.003994
1405.2064,0.004239
1407.0700,0.004335
1408.9337,0.004244
1410.7974,0.004245
1412.6610,0.004172
1414.5247,0.004154
1416.3884,0.003980
1418.2520,0.004055
1420.1157,0.004412
1421.9794,0.004156
1423.8431,0.004157
1425.7067,0.004157
1427.5704,0.003993
1429.4341,0.004044
1431.2977,0.004232
1433.1614,0.004125
1435.0251,0.003872
1436.8887,0.004158
1438.7524,0.004118
1440.6161,0.004014
1442.4797,0.003975
1444.3434,0.003967
1446.2071,0.003909
1448.0707,0.004000
1449.9344,0.003948
1451.7981,0.004035
1453.6618,0.003928
1455.5254,0.003758
1457.3891,0.004298
1459.2528,0.004270
1461.1164,0.003875
1462.9801,0.003623
1464.8438,0.003857
1466.7074,0.003853
1468.5711,0.003646
1470.4348,0.003326
1472.2984,0.003690
1474.1621,0.003891
1476.0258,0.003776
1477.8895,0.003574
1479.7531,0.003451
1481.6168,0.003532
1483.4805,0.003555
1485.3441,0.003542
1487.2078,0.003511
1489.0715,0.003596
1490.9351,0.003920
1492.7988,0.003522
1494.6625,0.003094
1496.5261,0.003263
1498.3898,0.003522
1500.2535,0.003467
1502.1171,0.003271
1503.9808,0.002956
1505.8445,0.003304
1507.7082,0.004373
1509.5718,0.003824
1511.4355,0.003402
1513.2992,0.003267
1515.1628,0.003023
1517.0265,0.003081
1518.8902,0.002889
1520.7538,0.003332
1522.6175,0.003754
1524.4812,0.003299
1526.3448,0.003072
1528.2085,0.003109
1530.0722,0.003046
1531.9359,0.002743
1533.7995,0.003087
1535.6632,0.002947
1537.5269,0.002495
1539.3905,0.002698
1541.2542,0.003232
1543.1179,0.003027
1544.9815,0.002921
1546.8452,0.002633
1548.7089,0.002529
1550.5725,0.002717
1552.4362,0.002540
1554.2999,0.002609
1556.1635,0.002215
1558.0272,0.002288
1559.8909,0.003408
1561.7546,0.002819
1563.6182,0.002311
1565.4819,0.002340
1567.3456,0.002146
1569.2092,0.002260
1571.0729,0.002488
1572.9366,0.002243
1574.8002,0.002117
1576.6639,0.002603
1578.5276,0.002634
1580.3912,0.002594
1582.2549,0.002511
1584.1186,0.002434
1585.9822,0.002475
1587.8459,0.002423
1589.7096,0.002413
1591.5733,0.002443
1593.4369,0.002463
1595.3006,0.002491
1597.1643,0.002505
1599.0279,0.002454
1600.8916,0.002426
1602.7553,0.002526
1604.6189,0.002695
1606.4826,0.002691
1608.3463,0.002693
1610.2099,0.002622
1612.0736,0.002626
1613.9373,0.002457
1615.8010,0.002716
1617.6646,0.003134
1619.5283,0.002821
1621.3920,0.002491
1623.2556,0.002806
1625.1193,0.002915
1626.9830,0.002801
1628.8466,0.002926
1630.7103,0.002870
1632.5740,0.002582
1634.4376,0.002507
1636.3013,0.002982
1638.1650,0.002904
1640.0286,0.002701
1641.8923,0.002539
1643.7560,0.002341
1645.6197,0.002188
1647.4833,0.002737
1649.3470,0.002644
1651.2107,0.002011
1653.0743,0.002551
1654.9380,0.002746
1656.8017,0.002249
1658.6653,0.002098
1660.5290,0.002084
1662.3927,0.002265
1664.2563,0.002262
1666.1200,0.001950
1667.9837,0.001756
1669.8474,0.002265
1671.7110,0.002259
1673.5747,0.001799
1675.4384,0.002049
1677.3020,0.002145
1679.1657,0.002100
1681.0294,0.001810
1682.8930,0.001687
1684.7567,0.002472
1686.6204,0.001994
1688.4840,0.001722
1690.3477,0.001768
1692.2114,0.001601
1694.0750,0.001216
1695.9387,0.001614
1697.8024,0.001544
1699.6661,0.001982
1701.5297,0.002124
1703.3934,0.001548
1705.2571,0.001379
1707.1207,0.001352
1708.9844,0.001271
1710.8481,0.001228
1712.7117,0.001193
1714.5754,0.001216
1716.4391,0.001490
1718.3027,0.001966
1720.1664,0.001514
1722.0301,0.001218
1723.8937,0.001115
1725.7574,0.001105
1727.6211,0.001042
1729.4848,0.001063
1731.3484,0.000850
1733.2121,0.000960
1735.0758,0.001669
1736.9394,0.001294
1738.8031,0.001184
1740.6668,0.001242
1742.5304,0.001234
1744.3941,0.001091
1746.2578,0.000897
1748.1214,0.000814
1749.9851,0.000849
1751.8488,0.001106
1753.7125,0.001006
1755.5761,0.000893
1757.4398,0.000958
1759.3035,0.000790
1761.1671,0.000846
1763.0308,0.001089
1764.8945,0.000943
1766.7581,0.000827
1768.6218,0.000917
1770.4855,0.000906
1772.3491,0.001283
1774.2128,0.001062
1776.0765,0.000725
1777.9401,0.000612
1779.8038,0.000869
1781.6675,0.001026
1783.5312,0.000993
1785.3948,0.001034
1787.2585,0.000874
1789.1222,0.000653
1790.9858,0.000806
1792.8495,0.001162
1794.7132,0.001057
1796.5768,0.000825
1798.4405,0.000685
1800.3042,0.000925
1802.1678,0.001029
1804.0315,0.000889
1805.8952,0.000790
1807.7589,0.000784
1809.6225,0.000720
1811.4862,0.000545
1813.3499,0.000444
1815.2135,0.000421
1817.0772,0.000277
1818.9409,0.000240
1820.8045,0.000446
1822.6682,0.000716
1824.5319,0.000840
1826.3955,0.000704
1828.2592,0.000656
1830.1229,0.000728
1831.9865,0.000497
1833.8502,0.000526
1835.7139,0.000476
1837.5776,0.000455
1839.4412,0.000627
1841.3049,0.000683
1843.1686,0.000676
1845.0322,0.000750
1846.8959,0.000757
1848.7596,0.000915
1850.6232,0.000937
1852.4869,0.000960
1854.3506,0.000688
1856.2142,0.000330
1858.0779,0.000222
1859.9416,0.000396
1861.8052,0.000661
1863.6689,0.000902
1865.5326,0.000671
1867.3963,0.000637
1869.2599,0.001053
1871.1236,0.000915
1872.9873,0.000514
1874.8509,0.000497
1876.7146,0.000484
1878.5783,0.000383
1880.4419,0.000390
1882.3056,0.000434
1884.1693,0.000594
1886.0329,0.000720
1887.8966,0.000469
1889.7603,0.000525
1891.6240,0.000599
1893.4876,0.000558
1895.3513,0.000527
1897.2150,0.000597
1899.0786,0.000744
1900.9423,0.000618
1902.8060,0.000458
1904.6696,0.000390
1906.5333,0.000160
1908.3970,0.000210
1910.2606,0.000486
1912.1243,0.000567
1913.9880,0.000337
1915.8516,0.000181
1917.7153,0.000519
1919.5790,0.000632
1921.4427,0.000156
1923.3063,0.000075
1925.1700,0.000338
1927.0337,0.000434
1928.8973,0.000237
1930.7610,0.000100
1932.6247,0.000010
1934.4883,-0.000116
1936.3520,-0.000098
1938.2157,-0.000037
1940.0793,-0.000105
1941.9430,0.000350
1943.8067,0.000498
1945.6704,0.000016
1947.5340,-0.000064
1949.3977,0.000228
1951.2614,0.000112
1953.1250,-0.000046
1954.9887,-0.000097
1956.8524,-0.000457
1958.7160,0.000052
1960.5797,0.000436
1962.4434,0.000060
1964.3070,0.000211
1966.1707,0.000126
1968.0344,0.000104
1969.8980,-0.000004
1971.7617,-0.000207
1973.6254,-0.000294
1975.4891,-0.000421
1977.3527,-0.000655
1979.2164,-0.000518
1981.0801,0.000144
1982.9437,0.000399
1984.8074,0.000387
1986.6711,0.000554
1988.5347,0.000261
1990.3984,-0.000284
1992.2621,-0.000142
1994.1257,0.000807
1995.9894,0.000795
1997.8531,0.000285
1999.7167,0.000383
2001.5804,0.000521
2003.4441,0.000253
2005.3078,-0.000555
2007.1714,-0.000838
2009.0351,-0.000378
2010.8988,-0.000515
2012.7624,-0.000345
2014.6261,0.000793
2016.4898,0.001591
2018.3534,0.000947
2020.2171,0.000020
2022.0808,-0.000101
2023.9444,-0.000207
2025.8081,-0.000556
2027.6718,-0.000439
2029.5355,0.000294
2031.3991,0.000552
2033.2628,0.000498
2035.1265,0.000736
2036.9901,0.000410
2038.8538,-0.000502
2040.7175,-0.001009
2042.5811,-0.000949
2044.4448,-0.000763
2046.3085,-0.000496
2048.1721,-0.000493
2050.0358,-0.000140
2051.8995,0.000193
2053.7631,0.000061
2055.6268,0.000051
2057.4905,-0.000170
2059.3542,-0.000615
2061.2178,-0.000816
2063.0815,-0.000827
2064.9452,-0.000596
2066.8088,-0.000819
2068.6725,-0.000802
2070.5362,-0.000270
2072.3998,-0.000230
2074.2635,-0.000519
2076.1272,-0.000569
2077.9908,-0.000420
2079.8545,-0.000331
2081.7182,-0.000286
2083.5819,-0.000252
2085.4455,-0.000118
2087.3092,-0.000185
2089.1729,-0.000359
2091.0365,-0.000440
2092.9002,-0.000791
2094.7639,-0.001249
2096.6275,-0.001061
2098.4912,-0.000625
2100.3549,-0.000557
2102.2185,-0.000582
2104.0822,-0.001056
2105.9459,-0.001162
2107.8095,-0.000523
2109.6732,-0.000289
2111.5369,-0.000590
2113.4006,-0.000555
2115.2642,-0.000354
2117.1279,-0.000419
2118.9916,-0.000704
2120.8552,-0.001033
2122.7189,-0.001128
2124.5826,-0.001099
2126.4462,-0.001239
2128.3099,-0.001688
2130.1736,-0.001683
2132.0372,-0.001412
2133.9009,-0.001516
2135.7646,-0.001479
2137.6282,-0.001373
2139.4919,-0.001177
2141.3556,-0.001099
2143.2193,-0.000834
2145.0829,-0.000594
2146.9466,-0.000999
2148.8103,-0.001436
2150.6739,-0.001249
2152.5376,-0.001257
2154.4013,-0.002097
2156.2649,-0.003403
2158.1286,-0.003360
2159.9923,-0.001456
2161.8559,0.000052
2163.7196,0.000593
2165.5833,0.000076
2167.4470,-0.000532
2169.3106,-0.000190
2171.1743,0.000267
2173.0380,0.000763
2174.9016,0.000273
2176.7653,-0.000725
2178.6290,-0.000230
2180.4926,-0.000359
2182.3563,-0.001125
2184.2200,-0.001001
2186.0836,-0.001380
2187.9473,-0.001495
2189.8110,-0.001267
2191.6746,-0.001573
2193.5383,-0.001260
2195.4020,-0.000606
2197.2657,-0.000590
2199.1293,-0.000338
2200.9930,-0.000290
2202.8567,-0.001266
2204.7203,-0.001731
2206.5840,-0.001007
2208.4477,-0.001202
2210.3113,-0.001715
2212.1750,-0.001212
2214.0387,-0.000875
2215.9023,-0.001008
2217.7660,-0.001306
2219.6297,-0.001476
2221.4934,-0.001691
2223.3570,-0.001565
2225.2207,-0.000762
2227.0844,-0.000488
2228.9480,-0.000997
2230.8117,-0.001325
2232.6754,-0.001194
2234.5390,-0.001097
2236.4027,-0.000879
2238.2664,-0.000533
2240.1300,-0.000788
2241.9937,-0.001189
2243.8574,-0.001191
2245.7210,-0.001325
2247.5847,-0.001395
2249.4484,-0.001325
2251.3121,-0.001077
2253.1757,-0.000897
2255.0394,-0.001031
2256.9031,-0.000994
2258.7667,-0.001112
2260.6304,-0.001245
2262.4941,-0.001175
2264.3577,-0.001028
2266.2214,-0.000857
2268.0851,-0.000835
2269.9487,-0.000784
2271.8124,-0.001110
2273.6761,-0.001775
2275.5397,-0.001713
2277.4034,-0.001204
2279.2671,-0.000787
2281.1308,-0.000405
2282.9944,-0.000616
2284.8581,-0.001029
2286.7218,-0.001043
2288.5854,-0.000883
2290.4491,-0.000747
2292.3128,-0.000718
2294.1764,-0.000686
2296.0401,-0.000474
2297.9038,-0.000468
2299.7674,-0.000629
2301.6311,-0.000531
2303.4948,-0.000112
2305.3585,0.000154
2307.2221,0.000112
2309.0858,0.000370
2310.9495,0.000577
2312.8131,0.000399
2314.6768,0.000466
2316.5405,0.001133
2318.4041,0.001780
2320.2678,0.002071
2322.1315,0.002577
2323.9951,0.002884
2325.8588,0.003111
2327.7225,0.003324
2329.5861,0.003134
2331.4498,0.003025
2333.3135,0.002899
2335.1772,0.002813
2337.0408,0.002967
2338.9045,0.003331
2340.7682,0.003644
2342.6318,0.003507
2344.4955,0.003148
2346.3592,0.002386
2348.2228,0.001163
2350.0865,0.001137
2351.9502,0.002300
2353.8138,0.003274
2355.6775,0.003971
2357.5412,0.004798
2359.4049,0.005262
2361.2685,0.004942
2363.1322,0.004364
2364.9959,0.003837
2366.8595,0.003546
2368.7232,0.003269
2370.5869,0.002980
2372.4505,0.002476
2374.3142,0.001774
2376.1779,0.001218
2378.0415,0.000311
2379.9052,-0.000879
2381.7689,-0.001660
2383.6325,-0.001913
2385.4962,-0.002104
2387.3599,-0.002418
2389.2236,-0.002420
2391.0872,-0.002210
2392.9509,-0.002421
2394.8146,-0.002775
2396.6782,-0.002544
2398.5419,-0.002285
2400.4056,-0.002526
2402.2692,-0.002787
2404.1329,-0.002785
2405.9966,-0.002636
2407.8602,-0.002448
2409.7239,-0.002452
2411.5876,-0.002285
2413.4512,-0.002024
2415.3149,-0.002246
2417.1786,-0.002713
2419.0423,-0.002746
2420.9059,-0.002458
2422.7696,-0.002169
2424.6333,-0.002294
2426.4969,-0.002553
2428.3606,-0.002310
2430.2243,-0.002197
2432.0879,-0.002513
2433.9516,-0.002492
2435.8153,-0.002243
2437.6789,-0.002267
2439.5426,-0.002226
2441.4063,-0.002186
2443.2700,-0.002125
2445.1336,-0.002156
2446.9973,-0.002202
2448.8610,-0.001973
2450.7246,-0.002111
2452.5883,-0.002423
2454.4520,-0.002302
2456.3156,-0.002218
2458.1793,-0.002379
2460.0430,-0.002480
2461.9066,-0.002342
2463.7703,-0.002077
2465.6340,-0.001961
2467.4976,-0.002209
2469.3613,-0.002525
2471.2250,-0.002409
2473.0887,-0.002291
2474.9523,-0.002478
2476.8160,-0.002605
2478.6797,-0.002540
2480.5433,-0.002491
2482.4070,-0.002460
2484.2707,-0.002326
2486.1343,-0.002341
2487.9980,-0.002456
2489.8617,-0.002347
2491.7253,-0.002404
2493.5890,-0.002752
2495.4527,-0.002880
2497.3164,-0.002827
2499.1800,-0.002744
2501.0437,-0.002519
2502.9074,-0.002396
2504.7710,-0.002514
2506.6347,-0.002622
2508.4984,-0.002468
2510.3620,-0.002291
2512.2257,-0.002538
2514.0894,-0.002820
2515.9530,-0.002947
2517.8167,-0.002813
2519.6804,-0.002279
2521.5440,-0.002114
2523.4077,-0.002486
2525.2714,-0.002705
2527.1351,-0.002481
2528.9987,-0.002248
2530.8624,-0.002435
2532.7261,-0.002590
2534.5897,-0.002714
2536.4534,-0.002699
2538.3171,-0.002553
2540.1807,-0.002737
2542.0444,-0.002693
2543.9081,-0.002731
2545.7717,-0.003172
2547.6354,-0.003212
2549.4991,-0.002823
2551.3627,-0.002577
2553.2264,-0.002557
