Wavenumber,Intensity
600.1014,0.001214
601.9651,0.008938
603.8287,0.001078
605.6924,-0.001061
607.5561,-0.001096
609.4197,-0.002741
611.2834,-0.001700
613.1471,-0.002429
615.0107,-0.006277
616.8744,-0.005403
618.7381,-0.005319
620.6017,-0.000423
622.4654,0.000819
624.3291,-0.000997
626.1928,0.000918
628.0564,0.000499
629.9201,-0.003674
631.7838,-0.005037
633.6474,-0.004618
635.5111,-0.003470
637.3748,0.000831
639.2384,0.001719
641.1021,-0.000310
642.9658,-0.003315
644.8294,-0.002270
646.6931,0.000288
648.5568,0.000868
650.4205,0.000579
652.2841,0.000501
654.1478,-0.000073
656.0115,-0.001081
657.8751,-0.000850
659.7388,-0.000462
661.6025,-0.000991
663.4661,-0.001720
665.3298,-0.001296
667.1935,-0.000248
669.0571,0.001476
670.9208,0.001750
672.7845,0.000755
674.6481,-0.000232
676.5118,-0.000468
678.3755,-0.000508
680.2392,-0.000440
682.1028,-0.000152
683.9665,0.000059
685.8302,-0.000923
687.6938,-0.000581
689.5575,-0.000201
691.4212,-0.000721
693.2848,0.000211
695.1485,0.000518
697.0122,-0.000240
698.8758,-0.000357
700.7395,-0.000319
702.6032,-0.000745
704.4669,-0.001220
706.3305,-0.001081
708.1942,-0.000267
710.0579,-0.000280
711.9215,-0.000855
713.7852,-0.000665
715.6489,-0.000347
717.5125,-0.000310
719.3762,-0.000554
721.2399,-0.000277
723.1035,-0.000049
724.9672,0.000019
726.8309,-0.000025
728.6945,-0.000502
730.5582,-0.000644
732.4219,-0.000689
734.2856,-0.001067
736.1492,-0.001113
738.0129,-0.000817
739.8766,-0.000292
741.7402,-0.000079
743.6039,-0.000345
745.4676,-0.000429
747.3312,-0.000544
749.1949,-0.000446
751.0586,-0.000139
752.9222,-0.000061
754.7859,-0.000213
756.6496,-0.000319
758.5132,-0.000003
760.3769,-0.000186
762.2406,-0.000465
764.1043,-0.000180
765.9679,-0.000137
767.8316,-0.000295
769.6953,-0.000167
771.5589,-0.000060
773.4226,-0.000146
775.2863,-0.000151
777.1499,-0.000202
779.0136,-0.000184
780.8773,-0.000254
782.7409,-0.000335
784.6046,-0.000409
786.4683,-0.000377
788.3320,-0.000189
790.1956,-0.000025
792.0593,-0.000121
793.9230,-0.000127
795.7866,-0.000112
797.6503,-0.000267
799.5140,-0.000416
801.3776,-0.000558
803.2413,-0.000667
805.1050,-0.000624
806.9686,-0.000443
808.8323,-0.000598
810.6960,-0.000709
812.5596,-0.000738
814.4233,-0.000604
816.2870,-0.000815
818.1507,-0.000845
820.0143,-0.000700
821.8780,-0.001016
823.7417,-0.001137
825.6053,-0.001044
827.4690,-0.000964
829.3327,-0.000898
831.1963,-0.001046
833.0600,-0.001072
834.9237,-0.000904
836.7873,-0.000878
838.6510,-0.000992
840.5147,-0.000999
842.3784,-0.000974
844.2420,-0.000919
846.1057,-0.000856
847.9694,-0.000823
849.8330,-0.000694
851.6967,-0.000724
853.5604,-0.000768
855.4240,-0.000825
857.2877,-0.000836
859.1514,-0.000785
861.0150,-0.000783
862.8787,-0.000643
864.7424,-0.000681
866.6060,-0.000759
868.4697,-0.000807
870.3334,-0.000913
872.1971,-0.000767
874.0607,-0.000696
875.9244,-0.000597
877.7881,-0.000559
879.6517,-0.000696
881.5154,-0.000638
883.3791,-0.000464
885.2427,-0.000519
887.1064,-0.000686
888.9701,-0.000840
890.8337,-0.000897
892.6974,-0.000757
894.5611,-0.000472
896.4247,-0.000341
898.2884,-0.000534
900.1521,-0.000677
902.0158,-0.000553
903.8794,-0.000501
905.7431,-0.000484
907.6068,-0.000481
909.4704,-0.000397
911.3341,-0.000354
913.1978,-0.000358
915.0614,-0.000332
916.9251,-0.000295
918.7888,-0.000258
920.6524,-0.000279
922.5161,-0.000241
924.3798,-0.000339
926.2435,-0.000418
928.1071,-0.000385
929.9708,-0.000385
931.8345,-0.000257
933.6981,-0.000155
935.5618,-0.000123
937.4255,-0.000042
939.2891,-0.000031
941.1528,0.000026
943.0165,0.000165
944.8801,0.000271
946.7438,0.000193
948.6075,0.000088
950.4711,0.000051
952.3348,-0.000055
954.1985,-0.000176
956.0622,-0.000288
957.9258,-0.000320
959.7895,-0.000327
961.6532,-0.000303
963.5168,-0.000379
965.3805,-0.000477
967.2442,-0.000413
969.1078,-0.000329
970.9715,-0.000249
972.8352,-0.000310
974.6988,-0.000393
976.5625,-0.000228
978.4262,-0.000056
980.2899,-0.000137
982.1535,-0.000215
984.0172,-0.000115
985.8809,-0.000058
987.7445,-0.000033
989.6082,0.000033
991.4719,-0.000020
993.3355,-0.000055
995.1992,0.000097
997.0629,0.000143
998.9265,0.000103
1000.7902,0.000125
1002.6539,0.000141
1004.5175,0.000205
1006.3812,0.000245
1008.2449,0.000258
1010.1086,0.000290
1011.9722,0.000330
1013.8359,0.000357
1015.6996,0.000353
1017.5632,0.000354
1019.4269,0.000372
1021.2906,0.000348
1023.1542,0.000356
1025.0179,0.000430
1026.8816,0.000557
1028.7452,0.000589
1030.6089,0.000587
1032.4726,0.000653
1034.3362,0.000664
1036.1999,0.000667
1038.0636,0.000714
1039.9273,0.000778
1041.7909,0.000768
1043.6546,0.000735
1045.5183,0.000698
1047.3819,0.000659
1049.2456,0.000654
1051.1093,0.000557
1052.9729,0.000500
1054.8366,0.000472
1056.7003,0.000313
1058.5639,0.000140
1060.4276,0.000161
1062.2913,0.000231
1064.1550,0.000288
1066.0186,0.000349
1067.8823,0.000332
1069.7460,0.000234
1071.6096,0.000225
1073.4733,0.000134
1075.3370,-0.000099
1077.2006,-0.000183
1079.0643,-0.000138
1080.9280,-0.000136
1082.7916,-0.000261
1084.6553,-0.000313
1086.5190,-0.000296
1088.3826,-0.000381
1090.2463,-0.000468
1092.1100,-0.000494
1093.9737,-0.000526
1095.8373,-0.000647
1097.7010,-0.000737
1099.5647,-0.000710
1101.4283,-0.000690
1103.2920,-0.000706
1105.1557,-0.000733
1107.0193,-0.000775
1108.8830,-0.000781
1110.7467,-0.000777
1112.6103,-0.000774
1114.4740,-0.000766
1116.3377,-0.000722
1118.2014,-0.000644
1120.0650,-0.000569
1121.9287,-0.000517
1123.7924,-0.000613
1125.6560,-0.000823
1127.5197,-0.000924
1129.3834,-0.000857
1131.2470,-0.000871
1133.1107,-0.000871
1134.9744,-0.000920
1136.8380,-0.001040
1138.7017,-0.001049
1140.5654,-0.001070
1142.4290,-0.001086
1144.2927,-0.001072
1146.1564,-0.001054
1148.0201,-0.001065
1149.8837,-0.001147
1151.7474,-0.001197
1153.6111,-0.001210
1155.4747,-0.001340
1157.3384,-0.001375
1159.2021,-0.001353
1161.0657,-0.001401
1162.9294,-0.001476
1164.7931,-0.001439
1166.6567,-0.001290
1168.5204,-0.001295
1170.3841,-0.001427
1172.2477,-0.001455
1174.1114,-0.001434
1175.9751,-0.001500
1177.8388,-0.001644
1179.7024,-0.001743
1181.5661,-0.001779
1183.4298,-0.001731
1185.2934,-0.001724
1187.1571,-0.001771
1189.0208,-0.001844
1190.8844,-0.001924
1192.7481,-0.001921
1194.6118,-0.001846
1196.4754,-0.001854
1198.3391,-0.001917
1200.2028,-0.002000
1202.0665,-0.002053
1203.9301,-0.002029
1205.7938,-0.002025
1207.6575,-0.002068
1209.5211,-0.002058
1211.3848,-0.002116
1213.2485,-0.002148
1215.1121,-0.002150
1216.9758,-0.002215
1218.8395,-0.002252
1220.7031,-0.002252
1222.5668,-0.002249
1224.4305,-0.002252
1226.2941,-0.002228
1228.1578,-0.002218
1230.0215,-0.002221
1231.8852,-0.002199
1233.7488,-0.002234
1235.6125,-0.002239
1237.4762,-0.002207
1239.3398,-0.002341
1241.2035,-0.002448
1243.0672,-0.002451
1244.9308,-0.002443
1246.7945,-0.002380
1248.6582,-0.002366
1250.5218,-0.002360
1252.3855,-0.002361
1254.2492,-0.002427
1256.1129,-0.002428
1257.9765,-0.002396
1259.8402,-0.002421
1261.7039,-0.002483
1263.5675,-0.002447
1265.4312,-0.002331
1267.2949,-0.002333
1269.1585,-0.002390
1271.0222,-0.002436
1272.8859,-0.002450
1274.7495,-0.002474
1276.6132,-0.002560
1278.4769,-0.002576
1280.3405,-0.002517
1282.2042,-0.002470
1284.0679,-0.002439
1285.9316,-0.002445
1287.7952,-0.002491
1289.6589,-0.002506
1291.5226,-0.002490
1293.3862,-0.002526
1295.2499,-0.002528
1297.1136,-0.002467
1298.9772,-0.002556
1300.8409,-0.002622
1302.7046,-0.002576
1304.5682,-0.002542
1306.4319,-0.002583
1308.2956,-0.002597
1310.1592,-0.002541
1312.0229,-0.002502
1313.8866,-0.002554
1315.7503,-0.002553
1317.6139,-0.002517
1319.4776,-0.002474
1321.3413,-0.002498
1323.2049,-0.002527
1325.0686,-0.002609
1326.9323,-0.002681
1328.7959,-0.002703
1330.6596,-0.002712
1332.5233,-0.002664
1334.3869,-0.002554
1336.2506,-0.002572
1338.1143,-0.002571
1339.9780,-0.002500
1341.8416,-0.002591
1343.7053,-0.002737
1345.5690,-0.002781
1347.4326,-0.002741
1349.2963,-0.002715
1351.1600,-0.002737
1353.0236,-0.002764
1354.8873,-0.002755
1356.7510,-0.002741
1358.6146,-0.002755
1360.4783,-0.002726
1362.3420,-0.002627
1364.2056,-0.002571
1366.0693,-0.002652
1367.9330,-0.002722
1369.7967,-0.002807
1371.6603,-0.002913
1373.5240,-0.002819
1375.3877,-0.002706
1377.2513,-0.002727
1379.1150,-0.002793
1380.9787,-0.002831
1382.8423,-0.002767
1384.7060,-0.002832
1386.5697,-0.002814
1388.4333,-0.002722
1390.2970,-0.002861
1392.1607,-0.003025
1394.0244,-0.002956
1395.8880,-0.002742
1397.7517,-0.002724
1399.6154,-0.002797
1401.4790,-0.002888
1403.3427,-0.002927
1405.2064,-0.002852
1407.0700,-0.002808
1408.9337,-0.002897
1410.7974,-0.002924
1412.6610,-0.002946
1414.5247,-0.002923
1416.3884,-0.002904
1418.2520,-0.002910
1420.1157,-0.002868
1421.9794,-0.002968
1423.8431,-0.003009
1425.7067,-0.002975
1427.5704,-0.002977
1429.4341,-0.002840
1431.2977,-0.002813
1433.1614,-0.003005
1435.0251,-0.003092
1436.8887,-0.002852
1438.7524,-0.002840
1440.6161,-0.003059
1442.4797,-0.003111
1444.3434,-0.003042
1446.2071,-0.003040
1448.0707,-0.003004
1449.9344,-0.002979
1451.7981,-0.003065
1453.6618,-0.003188
1455.5254,-0.003247
1457.3891,-0.002914
1459.2528,-0.002940
1461.1164,-0.003100
1462.9801,-0.003069
1464.8438,-0.002928
1466.7074,-0.003053
1468.5711,-0.003232
1470.4348,-0.003230
1472.2984,-0.003064
1474.1621,-0.003109
1476.0258,-0.003137
1477.8895,-0.003057
1479.7531,-0.003046
1481.6168,-0.003073
1483.4805,-0.003215
1485.3441,-0.003198
1487.2078,-0.003025
1489.0715,-0.003059
1490.9351,-0.003051
1492.7988,-0.003112
1494.6625,-0.003242
1496.5261,-0.003123
1498.3898,-0.003062
1500.2535,-0.003221
1502.1171,-0.003290
1503.9808,-0.003363
1505.8445,-0.003247
1507.7082,-0.002828
1509.5718,-0.003111
1511.4355,-0.003337
1513.2992,-0.003310
1515.1628,-0.003230
1517.0265,-0.003115
1518.8902,-0.003212
1520.7538,-0.003119
1522.6175,-0.002993
1524.4812,-0.003234
1526.3448,-0.003199
1528.2085,-0.003131
1530.0722,-0.003313
1531.9359,-0.003536
1533.7995,-0.003374
1535.6632,-0.003239
1537.5269,-0.003385
1539.3905,-0.003340
1541.2542,-0.003271
1543.1179,-0.003357
1544.9815,-0.003374
1546.8452,-0.003337
1548.7089,-0.003357
1550.5725,-0.003308
1552.4362,-0.003335
1554.2999,-0.003212
1556.1635,-0.003399
1558.0272,-0.003589
1559.8909,-0.002801
1561.7546,-0.002831
1563.6182,-0.003292
1565.4819,-0.003490
1567.3456,-0.003633
1569.2092,-0.003559
1571.0729,-0.003292
1572.9366,-0.003455
1574.8002,-0.003554
1576.6639,-0.003232
1578.5276,-0.003230
1580.3912,-0.003424
1582.2549,-0.003454
1584.1186,-0.003423
1585.9822,-0.003490
1587.8459,-0.003552
1589.7096,-0.003521
1591.5733,-0.003515
1593.4369,-0.003469
1595.3006,-0.003446
1597.1643,-0.003421
1599.0279,-0.003469
1600.8916,-0.003549
1602.7553,-0.003640
1604.6189,-0.003666
1606.4826,-0.003586
1608.3463,-0.003508
1610.2099,-0.003589
1612.0736,-0.003482
1613.9373,-0.003414
1615.8010,-0.003461
1617.6646,-0.003219
1619.5283,-0.003415
1621.3920,-0.003616
1623.2556,-0.003387
1625.1193,-0.003302
1626.9830,-0.003370
1628.8466,-0.003515
1630.7103,-0.003660
1632.5740,-0.003735
1634.4376,-0.003682
1636.3013,-0.003373
1638.1650,-0.003483
1640.0286,-0.003730
1641.8923,-0.003665
1643.7560,-0.003499
1645.6197,-0.003497
1647.4833,-0.003451
1649.3470,-0.003349
1651.2107,-0.003412
1653.0743,-0.003142
1654.9380,-0.003066
1656.8017,-0.003485
1658.6653,-0.003612
1660.5290,-0.003692
1662.3927,-0.003690
1664.2563,-0.003465
1666.1200,-0.003498
1667.9837,-0.003758
1669.8474,-0.003586
1671.7110,-0.003384
1673.5747,-0.003663
1675.4384,-0.003641
1677.3020,-0.003657
1679.1657,-0.003797
1681.0294,-0.003697
1682.8930,-0.003681
1684.7567,-0.003347
1686.6204,-0.003488
1688.4840,-0.003748
1690.3477,-0.003764
1692.2114,-0.003667
1694.0750,-0.003707
1695.9387,-0.003592
1697.8024,-0.003664
1699.6661,-0.003598
1701.5297,-0.003330
1703.3934,-0.003624
1705.2571,-0.003838
1707.1207,-0.003803
1708.9844,-0.003729
1710.8481,-0.003730
1712.7117,-0.003785
1714.5754,-0.003629
1716.4391,-0.003448
1718.3027,-0.003432
1720.1664,-0.003604
1722.0301,-0.003847
1723.8937,-0.003917
1725.7574,-0.003765
1727.6211,-0.003690
1729.4848,-0.003678
1731.3484,-0.003839
1733.2121,-0.003910
1735.0758,-0.003315
1736.9394,-0.003479
1738.8031,-0.003807
1740.6668,-0.003776
1742.5304,-0.003807
1744.3941,-0.003911
1746.2578,-0.003894
1748.1214,-0.003966
1749.9851,-0.004105
1751.8488,-0.003805
1753.7125,-0.003715
1755.5761,-0.003926
1757.4398,-0.003871
1759.3035,-0.003898
1761.1671,-0.003911
1763.0308,-0.003770
1764.8945,-0.003832
1766.7581,-0.003987
1768.6218,-0.003908
1770.4855,-0.003833
1772.3491,-0.003776
1774.2128,-0.003753
1776.0765,-0.003818
1777.9401,-0.003862
1779.8038,-0.003764
1781.6675,-0.003874
1783.5312,-0.004096
1785.3948,-0.003966
1787.2585,-0.003907
1789.1222,-0.004043
1790.9858,-0.004073
1792.8495,-0.003906
1794.7132,-0.003851
1796.5768,-0.003952
1798.4405,-0.003966
1800.3042,-0.003862
1802.1678,-0.003710
1804.0315,-0.003608
1805.8952,-0.003711
1807.7589,-0.003893
1809.6225,-0.004052
1811.4862,-0.004173
1813.3499,-0.004258
1815.2135,-0.004343
1817.0772,-0.004261
1818.9409,-0.004013
1820.8045,-0.003842
1822.6682,-0.003815
1824.5319,-0.003845
1826.3955,-0.003890
1828.2592,-0.003961
1830.1229,-0.003879
1831.9865,-0.003951
1833.8502,-0.004113
1835.7139,-0.004182
1837.5776,-0.004155
1839.4412,-0.004097
1841.3049,-0.004137
1843.1686,-0.004183
1845.0322,-0.003980
1846.8959,-0.003848
1848.7596,-0.003854
1850.6232,-0.003975
1852.4869,-0.003975
1854.3506,-0.003971
1856.2142,-0.004126
1858.0779,-0.004093
1859.9416,-0.004041
1861.8052,-0.004206
1863.6689,-0.004139
1865.5326,-0.004068
1867.3963,-0.004106
1869.2599,-0.004116
1871.1236,-0.004061
1872.9873,-0.004060
1874.8509,-0.004190
1876.7146,-0.004344
1878.5783,-0.004323
1880.4419,-0.004093
1882.3056,-0.003883
1884.1693,-0.004031
1886.0329,-0.004249
1887.8966,-0.004443
1889.7603,-0.004448
1891.6240,-0.004110
1893.4876,-0.003907
1895.3513,-0.004007
1897.2150,-0.004068
1899.0786,-0.003929
1900.9423,-0.003950
1902.8060,-0.004158
1904.6696,-0.004136
1906.5333,-0.003894
1908.3970,-0.003872
1910.2606,-0.004302
1912.1243,-0.004596
1913.9880,-0.004393
1915.8516,-0.004162
1917.7153,-0.004128
1919.5790,-0.003967
1921.4427,-0.003857
1923.3063,-0.003784
1925.1700,-0.003901
1927.0337,-0.004309
1928.8973,-0.004441
1930.7610,-0.004224
1932.6247,-0.004094
1934.4883,-0.003831
1936.3520,-0.003928
1938.2157,-0.004605
1940.0793,-0.004980
1941.9430,-0.004899
1943.8067,-0.004186
1945.6704,-0.003845
1947.5340,-0.004205
1949.3977,-0.003663
1951.2614,-0.003534
1953.1250,-0.004311
1954.9887,-0.004452
1956.8524,-0.004443
1958.7160,-0.004414
1960.5797,-0.004525
1962.4434,-0.004645
1964.3070,-0.004192
1966.1707,-0.003663
1968.0344,-0.003495
1969.8980,-0.003315
1971.7617,-0.003725
1973.6254,-0.004551
1975.4891,-0.004564
1977.3527,-0.004147
1979.2164,-0.003489
1981.0801,-0.003635
1982.9437,-0.003620
1984.8074,-0.002996
1986.6711,-0.003552
1988.5347,-0.004300
1990.3984,-0.003926
1992.2621,-0.003720
1994.1257,-0.004112
1995.9894,-0.004332
1997.8531,-0.003884
1999.7167,-0.003810
2001.5804,-0.003872
2003.4441,-0.003799
2005.3078,-0.004126
2007.1714,-0.004680
2009.0351,-0.004893
2010.8988,-0.004470
2012.7624,-0.004298
2014.6261,-0.004342
2016.4898,-0.004578
2018.3534,-0.004091
2020.2171,-0.003348
2022.0808,-0.003519
2023.9444,-0.003909
2025.8081,-0.004379
2027.6718,-0.003866
2029.5355,-0.003181
2031.3991,-0.003549
2033.2628,-0.004066
2035.1265,-0.004143
2036.9901,-0.004285
2038.8538,-0.004312
2040.7175,-0.003992
2042.5811,-0.003600
2044.4448,-0.003608
2046.3085,-0.004183
2048.1721,-0.004246
2050.0358,-0.003638
2051.8995,-0.003794
2053.7631,-0.004527
2055.6268,-0.004913
2057.4905,-0.004563
2059.3542,-0.003969
2061.2178,-0.004018
2063.0815,-0.004304
2064.9452,-0.004239
2066.8088,-0.004405
2068.6725,-0.004651
2070.5362,-0.004416
2072.3998,-0.004183
2074.2635,-0.004311
2076.1272,-0.004387
2077.9908,-0.004205
2079.8545,-0.003966
2081.7182,-0.003900
2083.5819,-0.004270
2085.4455,-0.004733
2087.3092,-0.004891
2089.1729,-0.004797
2091.0365,-0.004625
2092.9002,-0.004565
2094.7639,-0.004959
2096.6275,-0.005044
2098.4912,-0.004716
2100.3549,-0.004568
2102.2185,-0.004301
2104.0822,-0.004307
2105.9459,-0.004616
2107.8095,-0.004798
2109.6732,-0.004808
2111.5369,-0.004733
2113.4006,-0.004566
2115.2642,-0.004532
2117.1279,-0.004844
2118.9916,-0.004888
2120.8552,-0.004682
2122.7189,-0.004699
2124.5826,-0.005037
2126.4462,-0.005169
2128.3099,-0.004966
2130.1736,-0.005293
2132.0372,-0.005605
2133.9009,-0.005243
2135.7646,-0.005153
2137.6282,-0.005134
2139.4919,-0.004541
2141.3556,-0.004434
2143.2193,-0.004918
2145.0829,-0.005441
2146.9466,-0.005406
2148.8103,-0.005028
2150.6739,-0.004756
2152.5376,-0.004433
2154.4013,-0.004703
2156.2649,-0.004907
2158.1286,-0.004436
2159.9923,-0.004360
2161.8559,-0.004418
2163.7196,-0.004524
2165.5833,-0.004884
2167.4470,-0.004234
2169.3106,-0.004349
2171.1743,-0.005124
2173.0380,-0.004599
2174.9016,-0.004251
2176.7653,-0.004391
2178.6290,-0.004530
2180.4926,-0.004863
2182.3563,-0.004695
2184.2200,-0.004266
2186.0836,-0.004212
2187.9473,-0.004330
2189.8110,-0.004084
2191.6746,-0.003837
2193.5383,-0.003924
2195.4020,-0.004323
2197.2657,-0.004724
2199.1293,-0.004713
2200.9930,-0.005304
2202.8567,-0.006171
2204.7203,-0.005644
2206.5840,-0.004381
2208.4477,-0.004163
2210.3113,-0.004511
2212.1750,-0.004742
2214.0387,-0.005000
2215.9023,-0.004419
2217.7660,-0.004124
2219.6297,-0.004916
2221.4934,-0.005026
2223.3570,-0.004519
2225.2207,-0.004345
2227.0844,-0.004518
2228.9480,-0.004635
2230.8117,-0.004513
2232.6754,-0.004761
2234.5390,-0.004839
2236.4027,-0.004683
2238.2664,-0.004845
2240.1300,-0.004738
2241.9937,-0.004259
2243.8574,-0.004164
2245.7210,-0.004469
2247.5847,-0.004645
2249.4484,-0.004974
2251.3121,-0.004870
2253.1757,-0.004598
2255.0394,-0.004981
2256.9031,-0.005302
2258.7667,-0.005331
2260.6304,-0.004900
2262.4941,-0.004349
2264.3577,-0.004293
2266.2214,-0.004568
2268.0851,-0.004696
2269.9487,-0.004723
2271.8124,-0.005059
2273.6761,-0.005149
2275.5397,-0.004687
2277.4034,-0.004454
2279.2671,-0.004526
2281.1308,-0.004724
2282.9944,-0.005099
2284.8581,-0.005123
2286.7218,-0.004755
2288.5854,-0.004509
2290.4491,-0.004875
2292.3128,-0.005104
2294.1764,-0.004889
2296.0401,-0.004887
2297.9038,-0.004936
2299.7674,-0.004931
2301.6311,-0.004765
2303.4948,-0.004377
2305.3585,-0.004274
2307.2221,-0.004567
2309.0858,-0.004586
2310.9495,-0.004381
2312.8131,-0.004119
2314.6768,-0.003650
2316.5405,-0.003331
2318.4041,-0.003397
2320.2678,-0.003435
2322.1315,-0.003081
2323.9951,-0.002954
2325.8588,-0.002947
2327.7225,-0.002919
2329.5861,-0.003281
2331.4498,-0.003359
2333.3135,-0.002993
2335.1772,-0.002691
2337.0408,-0.002915
2338.9045,-0.003166
2340.7682,-0.002887
2342.6318,-0.002844
2344.4955,-0.002976
2346.3592,-0.003099
2348.2228,-0.003727
2350.0865,-0.004133
2351.9502,-0.003676
2353.8138,-0.003022
2355.6775,-0.002427
2357.5412,-0.001961
2359.4049,-0.001437
2361.2685,-0.001236
2363.1322,-0.002095
2364.9959,-0.002501
2366.8595,-0.002464
2368.7232,-0.002966
2370.5869,-0.003323
2372.4505,-0.003738
2374.3142,-0.004049
2376.1779,-0.004087
2378.0415,-0.004412
2379.9052,-0.004728
2381.7689,-0.004929
2383.6325,-0.005197
2385.4962,-0.005589
2387.3599,-0.005835
2389.2236,-0.005716
2391.0872,-0.005599
2392.9509,-0.005746
2394.8146,-0.005855
2396.6782,-0.005888
2398.5419,-0.005876
2400.4056,-0.005675
2402.2692,-0.005548
2404.1329,-0.005655
2405.9966,-0.005813
2407.8602,-0.005743
2409.7239,-0.005631
2411.5876,-0.005643
2413.4512,-0.005538
2415.3149,-0.005570
2417.1786,-0.005702
2419.0423,-0.005553
2420.9059,-0.005495
2422.7696,-0.005601
2424.6333,-0.005604
2426.4969,-0.005654
2428.3606,-0.005636
2430.2243,-0.005552
2432.0879,-0.005603
2433.9516,-0.005703
2435.8153,-0.005730
2437.6789,-0.005684
2439.5426,-0.005762
2441.4063,-0.005584
2443.2700,-0.005445
2445.1336,-0.005776
2446.9973,-0.005680
2448.8610,-0.005373
2450.7246,-0.005512
2452.5883,-0.005538
2454.4520,-0.005243
2456.3156,-0.005167
2458.1793,-0.005173
2460.0430,-0.005248
2461.9066,-0.005678
2463.7703,-0.005760
2465.6340,-0.005621
2467.4976,-0.006001
2469.3613,-0.006077
2471.2250,-0.005625
2473.0887,-0.005467
2474.9523,-0.005690
2476.8160,-0.005967
2478.6797,-0.005787
2480.5433,-0.005383
2482.4070,-0.005394
2484.2707,-0.005593
2486.1343,-0.005750
