Wavenumber,Intensity
650.4205,0.194228
652.2841,0.190528
654.1478,0.186711
656.0115,0.184453
657.8751,0.184074
659.7388,0.183560
661.6025,0.182365
663.4661,0.183316
665.3298,0.184933
667.1935,0.185444
669.0571,0.183148
670.9208,0.182313
672.7845,0.182002
674.6481,0.180962
676.5118,0.180462
678.3755,0.178882
680.2392,0.175886
682.1028,0.173651
683.9665,0.171721
685.8302,0.168920
687.6938,0.165667
689.5575,0.161593
691.4212,0.157593
693.2848,0.155175
695.1485,0.152984
697.0122,0.150248
698.8758,0.148480
700.7395,0.147841
702.6032,0.147568
704.4669,0.147420
706.3305,0.148077
708.1942,0.149703
710.0579,0.151864
711.9215,0.154351
713.7852,0.156119
715.6489,0.158253
717.5125,0.161204
719.3762,0.163227
721.2399,0.164723
723.1035,0.166050
724.9672,0.166230
726.8309,0.165310
728.6945,0.164059
730.5582,0.162628
732.4219,0.160734
734.2856,0.159772
736.1492,0.160169
738.0129,0.160357
739.8766,0.159883
741.7402,0.158994
743.6039,0.158243
745.4676,0.157995
747.3312,0.157343
749.1949,0.156566
751.0586,0.156111
752.9222,0.155997
754.7859,0.156403
756.6496,0.156703
758.5132,0.157046
760.3769,0.156736
762.2406,0.155295
764.1043,0.153705
765.9679,0.152012
767.8316,0.149899
769.6953,0.147567
771.5589,0.145788
773.4226,0.144661
775.2863,0.143285
777.1499,0.142137
779.0136,0.141618
780.8773,0.140980
782.7409,0.140631
784.6046,0.141013
786.4683,0.141172
788.3320,0.140945
790.1956,0.140482
792.0593,0.139896
793.9230,0.139527
795.7866,0.139605
797.6503,0.140056
799.5140,0.140737
801.3776,0.141647
803.2413,0.142689
805.1050,0.143873
806.9686,0.145200
808.8323,0.146831
810.6960,0.148182
812.5596,0.149578
814.4233,0.151524
816.2870,0.152912
818.1507,0.153616
820.0143,0.154094
821.8780,0.154188
823.7417,0.154505
825.6053,0.155112
827.4690,0.155838
829.3327,0.157012
831.1963,0.158645
833.0600,0.160657
834.9237,0.163351
836.7873,0.166766
838.6510,0.170090
840.5147,0.173565
842.3784,0.178006
844.2420,0.182925
846.1057,0.187756
847.9694,0.192962
849.8330,0.198365
851.6967,0.203552
853.5604,0.208669
855.4240,0.214118
857.2877,0.219796
859.1514,0.225127
861.0150,0.230313
862.8787,0.235522
864.7424,0.240461
866.6060,0.245050
868.4697,0.249265
870.3334,0.253264
872.1971,0.256944
874.0607,0.260486
875.9244,0.264377
877.7881,0.268246
879.6517,0.271836
881.5154,0.275832
883.3791,0.280382
885.2427,0.285313
887.1064,0.290278
888.9701,0.295609
890.8337,0.301603
892.6974,0.307922
894.5611,0.314107
896.4247,0.320364
898.2884,0.326804
900.1521,0.333107
902.0158,0.339242
903.8794,0.345303
905.7431,0.350980
907.6068,0.356389
909.4704,0.361417
911.3341,0.366144
913.1978,0.370566
915.0614,0.374649
916.9251,0.378503
918.7888,0.382277
920.6524,0.386102
922.5161,0.389830
924.3798,0.393324
926.2435,0.396819
928.1071,0.400504
929.9708,0.404460
931.8345,0.408600
933.6981,0.413060
935.5618,0.417592
937.4255,0.421926
939.2891,0.426135
941.1528,0.430251
943.0165,0.433959
944.8801,0.436799
946.7438,0.438474
948.6075,0.439370
950.4711,0.439502
952.3348,0.438439
954.1985,0.436294
956.0622,0.433527
957.9258,0.430162
959.7895,0.426449
961.6532,0.422580
963.5168,0.418689
965.3805,0.414873
967.2442,0.411252
969.1078,0.408398
970.9715,0.406192
972.8352,0.404176
974.6988,0.402162
976.5625,0.400319
978.4262,0.398734
980.2899,0.396829
982.1535,0.394387
984.0172,0.391483
985.8809,0.388280
987.7445,0.384356
989.6082,0.379369
991.4719,0.373532
993.3355,0.367132
995.1992,0.360363
997.0629,0.353130
998.9265,0.345403
1000.7902,0.337518
1002.6539,0.329589
1004.5175,0.321608
1006.3812,0.313504
1008.2449,0.305283
1010.1086,0.296875
1011.9722,0.288374
1013.8359,0.280069
1015.6996,0.271806
1017.5632,0.263548
1019.4269,0.255607
1021.2906,0.248008
1023.1542,0.240781
1025.0179,0.234113
1026.8816,0.227815
1028.7452,0.221457
1030.6089,0.215190
1032.4726,0.209351
1034.3362,0.203763
1036.1999,0.198139
1038.0636,0.192610
1039.9273,0.187434
1041.7909,0.182513
1043.6546,0.177735
1045.5183,0.173246
1047.3819,0.169158
1049.2456,0.165434
1051.1093,0.161918
1052.9729,0.158541
1054.8366,0.155412
1056.7003,0.152576
1058.5639,0.149849
1060.4276,0.147174
1062.2913,0.144600
1064.1550,0.142074
1066.0186,0.139656
1067.8823,0.137341
1069.7460,0.134922
1071.6096,0.132415
1073.4733,0.129977
1075.3370,0.127561
1077.2006,0.125061
1079.0643,0.122496
1080.9280,0.119972
1082.7916,0.117505
1084.6553,0.115062
1086.5190,0.112586
1088.3826,0.110107
1090.2463,0.107729
1092.1100,0.105322
1093.9737,0.102835
1095.8373,0.100262
1097.7010,0.097614
1099.5647,0.095111
1101.4283,0.092702
1103.2920,0.090148
1105.1557,0.087599
1107.0193,0.085179
1108.8830,0.082769
1110.7467,0.080452
1112.6103,0.078183
1114.4740,0.075788
1116.3377,0.073578
1118.2014,0.071574
1120.0650,0.069498
1121.9287,0.067599
1123.7924,0.066031
1125.6560,0.064633
1127.5197,0.063269
1129.3834,0.061915
1131.2470,0.060649
1133.1107,0.059512
1134.9744,0.058545
1136.8380,0.057655
1138.7017,0.056784
1140.5654,0.055895
1142.4290,0.054995
1144.2927,0.054105
1146.1564,0.053244
1148.0201,0.052404
1149.8837,0.051613
1151.7474,0.050886
1153.6111,0.049967
1155.4747,0.048953
1157.3384,0.048102
1159.2021,0.047231
1161.0657,0.046159
1162.9294,0.044942
1164.7931,0.043687
1166.6567,0.042483
1168.5204,0.041248
1170.3841,0.039949
1172.2477,0.038641
1174.1114,0.037374
1175.9751,0.036190
1177.8388,0.034970
1179.7024,0.033689
1181.5661,0.032431
1183.4298,0.031184
1185.2934,0.029917
1187.1571,0.028701
1189.0208,0.027543
1190.8844,0.026334
1192.7481,0.025146
1194.6118,0.024021
1196.4754,0.022955
1198.3391,0.021963
1200.2028,0.020983
1202.0665,0.020006
1203.9301,0.019154
1205.7938,0.018484
1207.6575,0.017835
1209.5211,0.017095
1211.3848,0.016332
1213.2485,0.015708
1215.1121,0.015184
1216.9758,0.014681
1218.8395,0.014273
1220.7031,0.013954
1222.5668,0.013709
1224.4305,0.013436
1226.2941,0.013097
1228.1578,0.012820
1230.0215,0.012571
1231.8852,0.012374
1233.7488,0.012214
1235.6125,0.012095
1237.4762,0.012006
1239.3398,0.011851
1241.2035,0.011700
1243.0672,0.011566
1244.9308,0.011404
1246.7945,0.011300
1248.6582,0.011217
1250.5218,0.011102
1252.3855,0.011003
1254.2492,0.010904
1256.1129,0.010780
1257.9765,0.010596
1259.8402,0.010349
1261.7039,0.010327
1263.5675,0.010383
1265.4312,0.010363
1267.2949,0.010414
1269.1585,0.010434
1271.0222,0.010397
1272.8859,0.010390
1274.7495,0.010404
1276.6132,0.010373
1278.4769,0.010382
1280.3405,0.010445
1282.2042,0.010443
1284.0679,0.010343
1285.9316,0.010248
1287.7952,0.010166
1289.6589,0.010208
1291.5226,0.010354
1293.3862,0.010375
1295.2499,0.010323
1297.1136,0.010321
1298.9772,0.010370
1300.8409,0.010366
1302.7046,0.010311
1304.5682,0.010296
1306.4319,0.010343
1308.2956,0.010372
1310.1592,0.010312
1312.0229,0.010269
1313.8866,0.010352
1315.7503,0.010502
1317.6139,0.010411
1319.4776,0.010304
1321.3413,0.010437
1323.2049,0.010560
1325.0686,0.010617
1326.9323,0.010678
1328.7959,0.010651
1330.6596,0.010627
1332.5233,0.010666
1334.3869,0.010700
1336.2506,0.010664
1338.1143,0.010644
1339.9780,0.010676
1341.8416,0.010863
1343.7053,0.010985
1345.5690,0.010997
1347.4326,0.011076
1349.2963,0.011172
1351.1600,0.011314
1353.0236,0.011359
1354.8873,0.011397
1356.7510,0.011531
1358.6146,0.011621
1360.4783,0.011496
1362.3420,0.011376
1364.2056,0.011712
1366.0693,0.012058
1367.9330,0.011980
1369.7967,0.012036
1371.6603,0.012134
1373.5240,0.012075
1375.3877,0.012240
1377.2513,0.012487
1379.1150,0.012501
1380.9787,0.012635
1382.8423,0.012858
1384.7060,0.012925
1386.5697,0.012665
1388.4333,0.012846
1390.2970,0.013301
1392.1607,0.013274
1394.0244,0.013079
1395.8880,0.013324
1397.7517,0.013547
1399.6154,0.013622
1401.4790,0.014074
1403.3427,0.014084
1405.2064,0.014147
1407.0700,0.014490
1408.9337,0.014661
1410.7974,0.014716
1412.6610,0.014867
1414.5247,0.014966
1416.3884,0.014794
1418.2520,0.014412
1420.1157,0.014751
1421.9794,0.015071
1423.8431,0.014860
1425.7067,0.015134
1427.5704,0.015143
1429.4341,0.014906
1431.2977,0.015090
1433.1614,0.015207
1435.0251,0.014886
1436.8887,0.014537
1438.7524,0.015042
1440.6161,0.015132
1442.4797,0.015117
1444.3434,0.015130
1446.2071,0.014960
1448.0707,0.014911
1449.9344,0.015116
1451.7981,0.015148
1453.6618,0.014911
1455.5254,0.014103
1457.3891,0.013427
1459.2528,0.014382
1461.1164,0.014670
1462.9801,0.014463
1464.8438,0.014186
1466.7074,0.014570
1468.5711,0.014583
1470.4348,0.014033
1472.2984,0.013126
1474.1621,0.013281
1476.0258,0.013369
1477.8895,0.013476
1479.7531,0.013636
1481.6168,0.013575
1483.4805,0.013606
1485.3441,0.013285
1487.2078,0.012732
1489.0715,0.012356
1490.9351,0.012484
1492.7988,0.013053
1494.6625,0.012701
1496.5261,0.011997
1498.3898,0.012101
1500.2535,0.012452
1502.1171,0.012587
1503.9808,0.011932
1505.8445,0.010353
1507.7082,0.010365
1509.5718,0.011523
1511.4355,0.011673
1513.2992,0.011681
1515.1628,0.011350
1517.0265,0.010997
1518.8902,0.011125
1520.7538,0.010379
1522.6175,0.010341
1524.4812,0.010774
1526.3448,0.010846
1528.2085,0.011368
1530.0722,0.011474
1531.9359,0.011207
1533.7995,0.010961
1535.6632,0.011581
1537.5269,0.010986
1539.3905,0.009545
1541.2542,0.009689
1543.1179,0.010205
1544.9815,0.010509
1546.8452,0.011181
1548.7089,0.011253
1550.5725,0.011158
1552.4362,0.011311
1554.2999,0.010840
1556.1635,0.010364
1558.0272,0.008577
1559.8909,0.008850
1561.7546,0.011029
1563.6182,0.011306
1565.4819,0.011383
1567.3456,0.011393
1569.2092,0.011075
1571.0729,0.011679
1572.9366,0.011974
1574.8002,0.011229
1576.6639,0.011087
1578.5276,0.012032
1580.3912,0.012218
1582.2549,0.012296
1584.1186,0.012425
1585.9822,0.012532
1587.8459,0.012715
1589.7096,0.012918
1591.5733,0.013132
1593.4369,0.013141
1595.3006,0.013222
1597.1643,0.013493
1599.0279,0.013661
1600.8916,0.013668
1602.7553,0.013915
1604.6189,0.014311
1606.4826,0.014645
1608.3463,0.014888
1610.2099,0.015253
1612.0736,0.015634
1613.9373,0.015791
1615.8010,0.015226
1617.6646,0.015746
1619.5283,0.016756
1621.3920,0.016884
1623.2556,0.016978
1625.1193,0.017915
1626.9830,0.018135
1628.8466,0.018343
1630.7103,0.019195
1632.5740,0.019413
1634.4376,0.018883
1636.3013,0.018980
1638.1650,0.019860
1640.0286,0.020226
1641.8923,0.020637
1643.7560,0.020681
1645.6197,0.020166
1647.4833,0.020000
1649.3470,0.020440
1651.2107,0.019587
1653.0743,0.017709
1654.9380,0.019000
1656.8017,0.019946
1658.6653,0.020035
1660.5290,0.019903
1662.3927,0.019572
1664.2563,0.019657
1666.1200,0.019529
1667.9837,0.018823
1669.8474,0.018179
1671.7110,0.018291
1673.5747,0.017899
1675.4384,0.017458
1677.3020,0.017996
1679.1657,0.017634
1681.0294,0.017097
1682.8930,0.016201
1684.7567,0.015404
1686.6204,0.016084
1688.4840,0.015737
1690.3477,0.015665
1692.2114,0.015627
1694.0750,0.015078
1695.9387,0.014257
1697.8024,0.014125
1699.6661,0.012671
1701.5297,0.013265
1703.3934,0.013700
1705.2571,0.013107
1707.1207,0.013401
1708.9844,0.013584
1710.8481,0.013446
1712.7117,0.013111
1714.5754,0.012468
1716.4391,0.011765
1718.3027,0.011784
1720.1664,0.012691
1722.0301,0.012622
1723.8937,0.012506
1725.7574,0.012615
1727.6211,0.012582
1729.4848,0.012512
1731.3484,0.012319
1733.2121,0.011427
1735.0758,0.011800
1736.9394,0.012490
1738.8031,0.011616
1740.6668,0.011773
1742.5304,0.011990
1744.3941,0.011893
1746.2578,0.011869
1748.1214,0.011536
1749.9851,0.011188
1751.8488,0.011404
1753.7125,0.011707
1755.5761,0.011440
1757.4398,0.011643
1759.3035,0.011717
1761.1671,0.011082
1763.0308,0.011321
1764.8945,0.011660
1766.7581,0.011244
1768.6218,0.011122
1770.4855,0.010944
1772.3491,0.010385
1774.2128,0.010924
1776.0765,0.011248
1777.9401,0.011301
1779.8038,0.011130
1781.6675,0.011260
1783.5312,0.011465
1785.3948,0.011556
1787.2585,0.011690
1789.1222,0.011341
1790.9858,0.010774
1792.8495,0.010881
1794.7132,0.011350
1796.5768,0.011334
1798.4405,0.011186
1800.3042,0.011134
1802.1678,0.011487
1804.0315,0.011758
1805.8952,0.011764
1807.7589,0.011766
1809.6225,0.011464
1811.4862,0.011223
1813.3499,0.011471
1815.2135,0.011437
1817.0772,0.011347
1818.9409,0.011629
1820.8045,0.011824
1822.6682,0.011704
1824.5319,0.011426
1826.3955,0.011444
1828.2592,0.011410
1830.1229,0.011311
1831.9865,0.011588
1833.8502,0.011353
1835.7139,0.011553
1837.5776,0.011875
1839.4412,0.011741
1841.3049,0.011431
1843.1686,0.010931
1845.0322,0.011087
1846.8959,0.011748
1848.7596,0.011547
1850.6232,0.011433
1852.4869,0.011509
1854.3506,0.011542
1856.2142,0.011372
1858.0779,0.011685
1859.9416,0.011746
1861.8052,0.011712
1863.6689,0.011946
1865.5326,0.011933
1867.3963,0.011344
1869.2599,0.011038
1871.1236,0.011490
1872.9873,0.011720
1874.8509,0.011911
1876.7146,0.012056
1878.5783,0.011940
1880.4419,0.011825
1882.3056,0.011614
1884.1693,0.011596
1886.0329,0.011710
1887.8966,0.011596
1889.7603,0.011400
1891.6240,0.011610
1893.4876,0.012007
1895.3513,0.012167
1897.2150,0.011778
1899.0786,0.011902
1900.9423,0.012055
1902.8060,0.011825
1904.6696,0.011863
1906.5333,0.011956
1908.3970,0.011647
1910.2606,0.011721
1912.1243,0.011930
1913.9880,0.011841
1915.8516,0.011777
1917.7153,0.011494
1919.5790,0.011478
1921.4427,0.011676
1923.3063,0.011587
1925.1700,0.011920
1927.0337,0.012257
1928.8973,0.012178
1930.7610,0.012005
1932.6247,0.011898
1934.4883,0.011923
1936.3520,0.011874
1938.2157,0.011852
1940.0793,0.011638
1941.9430,0.011616
1943.8067,0.011711
1945.6704,0.011301
1947.5340,0.011340
1949.3977,0.011832
1951.2614,0.012014
1953.1250,0.011540
1954.9887,0.011502
1956.8524,0.011472
1958.7160,0.011521
1960.5797,0.011525
1962.4434,0.011344
1964.3070,0.011747
1966.1707,0.011270
1968.0344,0.010363
1969.8980,0.011001
1971.7617,0.011422
1973.6254,0.011047
1975.4891,0.011252
1977.3527,0.011402
1979.2164,0.011336
1981.0801,0.012153
1982.9437,0.012545
1984.8074,0.012238
1986.6711,0.012356
1988.5347,0.012693
1990.3984,0.012531
1992.2621,0.012094
1994.1257,0.011806
1995.9894,0.012039
1997.8531,0.011822
1999.7167,0.011671
2001.5804,0.012150
2003.4441,0.011318
2005.3078,0.010446
2007.1714,0.011208
2009.0351,0.011848
2010.8988,0.011836
2012.7624,0.011745
2014.6261,0.011086
2016.4898,0.011160
2018.3534,0.012409
2020.2171,0.012702
2022.0808,0.012757
2023.9444,0.012880
2025.8081,0.012028
2027.6718,0.011302
2029.5355,0.012072
2031.3991,0.012399
2033.2628,0.011523
2035.1265,0.011634
2036.9901,0.012218
2038.8538,0.012054
2040.7175,0.011932
2042.5811,0.012639
2044.4448,0.012624
2046.3085,0.012036
2048.1721,0.012470
2050.0358,0.013258
2051.8995,0.013145
2053.7631,0.012561
2055.6268,0.012570
2057.4905,0.012687
2059.3542,0.012608
2061.2178,0.012881
2063.0815,0.013204
2064.9452,0.013170
2066.8088,0.012935
2068.6725,0.012640
2070.5362,0.012412
2072.3998,0.012867
2074.2635,0.013481
2076.1272,0.013557
2077.9908,0.013231
2079.8545,0.012850
2081.7182,0.012956
2083.5819,0.013157
2085.4455,0.012779
2087.3092,0.012744
2089.1729,0.012985
2091.0365,0.012791
2092.9002,0.012523
2094.7639,0.012942
2096.6275,0.013254
2098.4912,0.013474
2100.3549,0.013306
2102.2185,0.012791
2104.0822,0.013022
2105.9459,0.013475
2107.8095,0.013445
2109.6732,0.012981
2111.5369,0.013259
2113.4006,0.013637
2115.2642,0.013092
2117.1279,0.012992
2118.9916,0.013228
2120.8552,0.013211
2122.7189,0.012830
2124.5826,0.012774
2126.4462,0.013281
2128.3099,0.013243
2130.1736,0.012728
2132.0372,0.012566
2133.9009,0.012496
2135.7646,0.012604
2137.6282,0.012597
2139.4919,0.011948
2141.3556,0.011551
2143.2193,0.011637
2145.0829,0.011578
2146.9466,0.011907
2148.8103,0.012114
2150.6739,0.011282
2152.5376,0.011178
2154.4013,0.011675
2156.2649,0.011276
2158.1286,0.010942
2159.9923,0.012120
2161.8559,0.013489
2163.7196,0.013365
2165.5833,0.012769
2167.4470,0.012427
2169.3106,0.012292
2171.1743,0.013031
2173.0380,0.013210
2174.9016,0.013133
2176.7653,0.012809
2178.6290,0.012676
2180.4926,0.012785
2182.3563,0.012724
2184.2200,0.012963
2186.0836,0.013701
2187.9473,0.013659
2189.8110,0.013569
2191.6746,0.013357
2193.5383,0.013194
2195.4020,0.013224
2197.2657,0.012824
2199.1293,0.012950
2200.9930,0.013224
2202.8567,0.013208
2204.7203,0.013343
2206.5840,0.013423
2208.4477,0.013346
2210.3113,0.012971
2212.1750,0.013086
2214.0387,0.014085
2215.9023,0.014724
2217.7660,0.013612
2219.6297,0.012661
2221.4934,0.013153
2223.3570,0.013785
2225.2207,0.013930
2227.0844,0.013805
2228.9480,0.013582
2230.8117,0.013596
2232.6754,0.013800
2234.5390,0.013820
2236.4027,0.014098
2238.2664,0.014040
2240.1300,0.013732
2241.9937,0.014003
2243.8574,0.014118
2245.7210,0.013948
2247.5847,0.013552
2249.4484,0.013738
2251.3121,0.014008
2253.1757,0.014387
2255.0394,0.014272
2256.9031,0.014017
2258.7667,0.014372
2260.6304,0.014567
2262.4941,0.014620
2264.3577,0.014583
2266.2214,0.014590
2268.0851,0.014612
2269.9487,0.014582
2271.8124,0.014826
2273.6761,0.014990
2275.5397,0.014832
2277.4034,0.014705
2279.2671,0.014883
2281.1308,0.015089
2282.9944,0.014678
2284.8581,0.014771
2286.7218,0.015430
2288.5854,0.015597
2290.4491,0.015486
2292.3128,0.015127
2294.1764,0.014842
2296.0401,0.014771
2297.9038,0.015059
2299.7674,0.015525
2301.6311,0.015438
2303.4948,0.015194
2305.3585,0.015364
2307.2221,0.015675
2309.0858,0.015888
2310.9495,0.016165
2312.8131,0.016746
2314.6768,0.017024
2316.5405,0.016855
2318.4041,0.016955
2320.2678,0.017447
2322.1315,0.018040
2323.9951,0.018375
2325.8588,0.018100
2327.7225,0.017906
2329.5861,0.018146
2331.4498,0.017901
2333.3135,0.017858
2335.1772,0.018160
2337.0408,0.018507
2338.9045,0.018664
2340.7682,0.018762
2342.6318,0.018891
2344.4955,0.018652
2346.3592,0.017918
2348.2228,0.017069
2350.0865,0.016884
2351.9502,0.017682
2353.8138,0.018688
2355.6775,0.019142
2357.5412,0.019697
2359.4049,0.019975
2361.2685,0.019356
2363.1322,0.018810
2364.9959,0.019006
2366.8595,0.019219
2368.7232,0.018959
2370.5869,0.018577
2372.4505,0.018047
2374.3142,0.017206
2376.1779,0.016599
2378.0415,0.016143
2379.9052,0.015700
2381.7689,0.015218
2383.6325,0.014924
2385.4962,0.014851
2387.3599,0.014941
2389.2236,0.014696
2391.0872,0.014635
2392.9509,0.014790
2394.8146,0.014736
2396.6782,0.014553
2398.5419,0.014636
2400.4056,0.014627
2402.2692,0.014457
2404.1329,0.014825
2405.9966,0.015158
2407.8602,0.015380
2409.7239,0.015552
2411.5876,0.015126
2413.4512,0.014933
2415.3149,0.015019
2417.1786,0.015039
2419.0423,0.014953
2420.9059,0.014747
2422.7696,0.014545
2424.6333,0.014717
2426.4969,0.014913
2428.3606,0.014740
2430.2243,0.014932
2432.0879,0.015472
2433.9516,0.015639
2435.8153,0.015351
2437.6789,0.015016
2439.5426,0.014819
2441.4063,0.014592
2443.2700,0.014798
2445.1336,0.015166
2446.9973,0.015447
2448.8610,0.015382
2450.7246,0.015411
2452.5883,0.015294
2454.4520,0.014827
2456.3156,0.014706
2458.1793,0.014848
2460.0430,0.015031
2461.9066,0.015179
2463.7703,0.015134
2465.6340,0.015229
2467.4976,0.015256
2469.3613,0.015307
2471.2250,0.015263
2473.0887,0.014973
2474.9523,0.014760
2476.8160,0.014960
2478.6797,0.015131
2480.5433,0.015069
2482.4070,0.015096
2484.2707,0.015175
2486.1343,0.015132
2487.9980,0.015072
2489.8617,0.015175
2491.7253,0.015484
2493.5890,0.015520
2495.4527,0.014936
2497.3164,0.014661
2499.1800,0.015163
2501.0437,0.015601
2502.9074,0.015422
2504.7710,0.015237
2506.6347,0.015309
2508.4984,0.015366
2510.3620,0.015366
2512.2257,0.015163
2514.0894,0.015153
2515.9530,0.015075
2517.8167,0.015028
2519.6804,0.015286
2521.5440,0.015259
2523.4077,0.015195
2525.2714,0.015272
2527.1351,0.015513
2528.9987,0.015722
2530.8624,0.015483
2532.7261,0.015411
2534.5897,0.015348
2536.4534,0.015380
2538.3171,0.015616
2540.1807,0.015690
2542.0444,0.015764
2543.9081,0.015850
2545.7717,0.015198
2547.6354,0.014668
2549.4991,0.015032
2551.3627,0.015466
2553.2264,0.015269
2555.0901,0.014810
2556.9538,0.014857
2558.8174,0.015458
2560.6811,0.015711
2562.5448,0.016045
2564.4084,0.016092
2566.2721,0.015509
2568.1358,0.015058
2569.9994,0.015053
2571.8631,0.015439
2573.7268,0.015577
2575.5904,0.015573
2577.4541,0.015430
2579.3178,0.015329
2581.1815,0.015514
2583.0451,0.015404
2584.9088,0.015246
2586.7725,0.015086
2588.6361,0.015350
2590.4998,0.015774
2592.3635,0.015715
2594.2271,0.015375
2596.0908,0.015530
2597.9545,0.015839
2599.8181,0.015640
2601.6818,0.015432
2603.5455,0.015638
2605.4091,0.015919
2607.2728,0.016013
2609.1365,0.015793
2611.0002,0.015959
2612.8638,0.016257
2614.7275,0.016065
2616.5912,0.015600
2618.4548,0.015481
2620.3185,0.015607
2622.1822,0.015811
2624.0458,0.015975
2625.9095,0.015585
