Wavenumber,Intensity
600.1014,0.014136
601.9651,0.006820
603.8287,0.000583
605.6924,-0.003629
607.5561,-0.005779
609.4197,-0.005586
611.2834,-0.006660
613.1471,-0.002041
615.0107,0.002112
616.8744,-0.000252
618.7381,-0.000654
620.6017,-0.001609
622.4654,-0.002201
624.3291,-0.001027
626.1928,-0.000523
628.0564,-0.001380
629.9201,0.000628
631.7838,0.001159
633.6474,-0.000564
635.5111,-0.000996
637.3748,-0.000330
639.2384,-0.001184
641.1021,-0.002400
642.9658,-0.002615
644.8294,-0.002190
646.6931,-0.000682
648.5568,0.000759
650.4205,0.000804
652.2841,0.001535
654.1478,0.002592
656.0115,0.001967
657.8751,0.000581
659.7388,0.000081
661.6025,0.000137
663.4661,-0.000450
665.3298,-0.000952
667.1935,-0.000477
669.0571,0.000449
670.9208,0.000531
672.7845,-0.000045
674.6481,0.000013
676.5118,0.001388
678.3755,0.002029
680.2392,0.000542
682.1028,-0.000358
683.9665,0.001007
685.8302,0.001966
687.6938,0.001698
689.5575,0.001819
691.4212,0.001744
693.2848,0.001137
695.1485,0.000354
697.0122,0.000350
698.8758,0.000745
700.7395,0.000295
702.6032,-0.000018
704.4669,0.000654
706.3305,0.000922
708.1942,0.000534
710.0579,-0.000176
711.9215,-0.000292
713.7852,0.000353
715.6489,0.000677
717.5125,0.000574
719.3762,0.000402
721.2399,-0.000053
723.1035,-0.000127
724.9672,0.000129
726.8309,0.000772
728.6945,0.001088
730.5582,0.000830
732.4219,0.000265
734.2856,0.000365
736.1492,0.000690
738.0129,0.000420
739.8766,0.000350
741.7402,0.000421
743.6039,0.000408
745.4676,0.000250
747.3312,0.000197
749.1949,0.000572
751.0586,0.000674
752.9222,0.000462
754.7859,0.000363
756.6496,0.000167
758.5132,0.000112
760.3769,0.000378
762.2406,0.000712
764.1043,0.000789
765.9679,0.000750
767.8316,0.000642
769.6953,0.000463
771.5589,0.000441
773.4226,0.000475
775.2863,0.000540
777.1499,0.000650
779.0136,0.000677
780.8773,0.000590
782.7409,0.000336
784.6046,0.000195
786.4683,0.000147
788.3320,0.000319
790.1956,0.000593
792.0593,0.000670
793.9230,0.000559
795.7866,0.000430
797.6503,0.000492
799.5140,0.000579
801.3776,0.000251
803.2413,0.000072
805.1050,0.000168
806.9686,0.000195
808.8323,0.000127
810.6960,-0.000194
812.5596,-0.000309
814.4233,-0.000033
816.2870,0.000184
818.1507,0.000092
820.0143,0.000116
821.8780,0.000285
823.7417,0.000409
825.6053,0.000314
827.4690,0.000176
829.3327,0.000216
831.1963,0.000320
833.0600,0.000167
834.9237,-0.000004
836.7873,0.000089
838.6510,0.000219
840.5147,0.000236
842.3784,0.000065
844.2420,-0.000134
846.1057,0.000020
847.9694,0.000298
849.8330,0.000281
851.6967,0.000143
853.5604,0.000181
855.4240,0.000221
857.2877,0.000286
859.1514,0.000351
861.0150,0.000478
862.8787,0.000537
864.7424,0.000302
866.6060,0.000106
868.4697,0.000164
870.3334,0.000353
872.1971,0.000410
874.0607,0.000395
875.9244,0.000395
877.7881,0.000418
879.6517,0.000511
881.5154,0.000436
883.3791,0.000351
885.2427,0.000398
887.1064,0.000387
888.9701,0.000346
890.8337,0.000415
892.6974,0.000509
894.5611,0.000426
896.4247,0.000408
898.2884,0.000449
900.1521,0.000367
902.0158,0.000288
903.8794,0.000283
905.7431,0.000343
907.6068,0.000419
909.4704,0.000432
911.3341,0.000390
913.1978,0.000474
915.0614,0.000506
916.9251,0.000404
918.7888,0.000299
920.6524,0.000295
922.5161,0.000354
924.3798,0.000372
926.2435,0.000352
928.1071,0.000336
929.9708,0.000398
931.8345,0.000456
933.6981,0.000486
935.5618,0.000517
937.4255,0.000468
939.2891,0.000445
941.1528,0.000348
943.0165,0.000339
944.8801,0.000398
946.7438,0.000405
948.6075,0.000331
950.4711,0.000287
952.3348,0.000381
954.1985,0.000480
956.0622,0.000546
957.9258,0.000619
959.7895,0.000565
961.6532,0.000388
963.5168,0.000387
965.3805,0.000436
967.2442,0.000377
969.1078,0.000389
970.9715,0.000378
972.8352,0.000405
974.6988,0.000457
976.5625,0.000416
978.4262,0.000428
980.2899,0.000494
982.1535,0.000486
984.0172,0.000483
985.8809,0.000426
987.7445,0.000366
989.6082,0.000375
991.4719,0.000382
993.3355,0.000368
995.1992,0.000433
997.0629,0.000542
998.9265,0.000506
1000.7902,0.000450
1002.6539,0.000450
1004.5175,0.000368
1006.3812,0.000361
1008.2449,0.000434
1010.1086,0.000429
1011.9722,0.000447
1013.8359,0.000432
1015.6996,0.000345
1017.5632,0.000274
1019.4269,0.000279
1021.2906,0.000289
1023.1542,0.000359
1025.0179,0.000417
1026.8816,0.000366
1028.7452,0.000337
1030.6089,0.000324
1032.4726,0.000379
1034.3362,0.000334
1036.1999,0.000323
1038.0636,0.000420
1039.9273,0.000409
1041.7909,0.000302
1043.6546,0.000261
1045.5183,0.000324
1047.3819,0.000262
1049.2456,0.000209
1051.1093,0.000325
1052.9729,0.000359
1054.8366,0.000302
1056.7003,0.000334
1058.5639,0.000365
1060.4276,0.000316
1062.2913,0.000213
1064.1550,0.000111
1066.0186,0.000164
1067.8823,0.000159
1069.7460,0.000131
1071.6096,0.000121
1073.4733,0.000126
1075.3370,0.000141
1077.2006,0.000105
1079.0643,0.000112
1080.9280,0.000173
1082.7916,0.000116
1084.6553,0.000102
1086.5190,0.000206
1088.3826,0.000197
1090.2463,0.000069
1092.1100,0.000098
1093.9737,0.000241
1095.8373,0.000298
1097.7010,0.000218
1099.5647,0.000181
1101.4283,0.000156
1103.2920,0.000104
1105.1557,0.000130
1107.0193,0.000147
1108.8830,0.000111
1110.7467,0.000115
1112.6103,0.000195
1114.4740,0.000270
1116.3377,0.000259
1118.2014,0.000257
1120.0650,0.000294
1121.9287,0.000294
1123.7924,0.000249
1125.6560,0.000226
1127.5197,0.000248
1129.3834,0.000288
1131.2470,0.000311
1133.1107,0.000317
1134.9744,0.000315
1136.8380,0.000317
1138.7017,0.000330
1140.5654,0.000379
1142.4290,0.000485
1144.2927,0.000482
1146.1564,0.000371
1148.0201,0.000329
1149.8837,0.000342
1151.7474,0.000303
1153.6111,0.000273
1155.4747,0.000288
1157.3384,0.000284
1159.2021,0.000265
1161.0657,0.000275
1162.9294,0.000278
1164.7931,0.000300
1166.6567,0.000282
1168.5204,0.000294
1170.3841,0.000293
1172.2477,0.000208
1174.1114,0.000221
1175.9751,0.000232
1177.8388,0.000175
1179.7024,0.000182
1181.5661,0.000201
1183.4298,0.000181
1185.2934,0.000159
1187.1571,0.000164
1189.0208,0.000148
1190.8844,0.000123
1192.7481,0.000075
1194.6118,0.000020
1196.4754,-0.000009
1198.3391,-0.000023
1200.2028,0.000011
1202.0665,0.000063
1203.9301,0.000083
1205.7938,0.000076
1207.6575,0.000011
1209.5211,-0.000079
1211.3848,-0.000074
1213.2485,0.000031
1215.1121,0.000068
1216.9758,0.000086
1218.8395,0.000082
1220.7031,0.000000
1222.5668,-0.000022
1224.4305,-0.000002
1226.2941,-0.000009
1228.1578,-0.000026
1230.0215,-0.000018
1231.8852,0.000004
1233.7488,0.000020
1235.6125,0.000073
1237.4762,0.000011
1239.3398,-0.000069
1241.2035,-0.000107
1243.0672,-0.000032
1244.9308,0.000049
1246.7945,-0.000003
1248.6582,-0.000102
1250.5218,-0.000086
1252.3855,-0.000069
1254.2492,-0.000065
1256.1129,-0.000036
1257.9765,-0.000036
1259.8402,-0.000016
1261.7039,-0.000015
1263.5675,-0.000016
1265.4312,0.000003
1267.2949,0.000004
1269.1585,0.000006
1271.0222,0.000031
1272.8859,0.000016
1274.7495,-0.000063
1276.6132,-0.000062
1278.4769,-0.000007
1280.3405,-0.000055
1282.2042,-0.000014
1284.0679,0.000017
1285.9316,-0.000027
1287.7952,-0.000010
1289.6589,0.000013
1291.5226,-0.000010
1293.3862,-0.000057
1295.2499,-0.000038
1297.1136,-0.000057
1298.9772,-0.000086
1300.8409,-0.000055
1302.7046,-0.000027
1304.5682,-0.000018
1306.4319,-0.000047
1308.2956,-0.000070
1310.1592,0.000033
1312.0229,0.000090
1313.8866,0.000012
1315.7503,0.000026
1317.6139,0.000113
1319.4776,0.000039
1321.3413,-0.000059
1323.2049,-0.000061
1325.0686,-0.000029
1326.9323,0.000008
1328.7959,-0.000017
1330.6596,-0.000054
1332.5233,-0.000019
1334.3869,0.000007
1336.2506,0.000026
1338.1143,0.000026
1339.9780,-0.000064
1341.8416,-0.000119
1343.7053,-0.000050
1345.5690,-0.000028
1347.4326,-0.000079
1349.2963,-0.000010
1351.1600,0.000062
1353.0236,0.000051
1354.8873,-0.000020
1356.7510,-0.000091
1358.6146,-0.000054
1360.4783,0.000017
1362.3420,0.000077
1364.2056,0.000101
1366.0693,0.000013
1367.9330,-0.000045
1369.7967,-0.000001
1371.6603,0.000013
1373.5240,-0.000033
1375.3877,-0.000104
1377.2513,-0.000092
1379.1150,-0.000067
1380.9787,-0.000077
1382.8423,0.000014
1384.7060,0.000082
1386.5697,0.000101
1388.4333,0.000018
1390.2970,-0.000036
1392.1607,-0.000042
1394.0244,-0.000048
1395.8880,-0.000090
1397.7517,-0.000081
1399.6154,-0.000042
1401.4790,-0.000091
1403.3427,-0.000002
1405.2064,0.000106
1407.0700,0.000074
1408.9337,-0.000007
1410.7974,-0.000019
1412.6610,-0.000013
1414.5247,0.000006
1416.3884,0.000045
1418.2520,0.000057
1420.1157,-0.000063
1421.9794,-0.000075
1423.8431,0.000037
1425.7067,0.000015
1427.5704,-0.000054
1429.4341,-0.000081
1431.2977,-0.000090
1433.1614,-0.000084
1435.0251,0.000046
1436.8887,0.000036
1438.7524,-0.000067
1440.6161,0.000020
1442.4797,-0.000049
1444.3434,-0.000072
1446.2071,0.000029
1448.0707,0.000050
1449.9344,-0.000048
1451.7981,-0.000072
1453.6618,-0.000042
1455.5254,0.000034
1457.3891,-0.000083
1459.2528,-0.000130
1461.1164,-0.000013
1462.9801,0.000001
1464.8438,0.000033
1466.7074,-0.000033
1468.5711,-0.000114
1470.4348,-0.000056
1472.2984,0.000027
1474.1621,-0.000071
1476.0258,0.000049
1477.8895,0.000038
1479.7531,-0.000042
1481.6168,-0.000076
1483.4805,-0.000078
1485.3441,0.000003
1487.2078,0.000101
1489.0715,0.000120
1490.9351,0.000128
1492.7988,0.000054
1494.6625,0.000070
1496.5261,0.000052
1498.3898,-0.000093
1500.2535,-0.000094
1502.1171,-0.000059
1503.9808,-0.000013
1505.8445,0.000171
1507.7082,-0.000003
1509.5718,-0.000091
1511.4355,-0.000078
1513.2992,-0.000078
1515.1628,0.000082
1517.0265,0.000051
1518.8902,0.000046
1520.7538,0.000246
1522.6175,-0.000003
1524.4812,-0.000166
1526.3448,-0.000123
1528.2085,-0.000063
1530.0722,-0.000003
1531.9359,0.000040
1533.7995,0.000062
1535.6632,0.000026
1537.5269,0.000036
1539.3905,-0.000217
1541.2542,-0.000380
1543.1179,-0.000125
1544.9815,0.000102
1546.8452,0.000077
1548.7089,0.000127
1550.5725,0.000127
1552.4362,0.000001
1554.2999,0.000005
1556.1635,-0.000091
1558.0272,0.000032
1559.8909,-0.000032
1561.7546,-0.000111
1563.6182,-0.000003
1565.4819,-0.000001
1567.3456,0.000064
1569.2092,0.000048
1571.0729,-0.000077
1572.9366,0.000019
1574.8002,0.000125
1576.6639,-0.000016
1578.5276,-0.000171
1580.3912,-0.000086
1582.2549,0.000003
1584.1186,0.000058
1585.9822,-0.000005
1587.8459,-0.000083
1589.7096,-0.000028
1591.5733,0.000034
1593.4369,-0.000080
1595.3006,-0.000217
1597.1643,-0.000199
1599.0279,-0.000176
1600.8916,-0.000149
1602.7553,0.000006
1604.6189,-0.000008
1606.4826,-0.000179
1608.3463,-0.000202
1610.2099,-0.000240
1612.0736,-0.000118
1613.9373,0.000158
1615.8010,0.000322
1617.6646,0.000036
1619.5283,-0.000128
1621.3920,-0.000037
1623.2556,-0.000118
1625.1193,-0.000245
1626.9830,-0.000172
1628.8466,-0.000214
1630.7103,-0.000255
1632.5740,-0.000197
1634.4376,-0.000091
1636.3013,-0.000063
1638.1650,-0.000163
1640.0286,-0.000270
1641.8923,-0.000344
1643.7560,-0.000195
1645.6197,-0.000014
1647.4833,-0.000009
1649.3470,-0.000163
1651.2107,-0.000154
1653.0743,-0.000050
1654.9380,-0.000412
1656.8017,-0.000314
1658.6653,-0.000011
1660.5290,0.000194
1662.3927,0.000212
1664.2563,0.000044
1666.1200,0.000032
1667.9837,-0.000017
1669.8474,-0.000205
1671.7110,-0.000274
1673.5747,-0.000070
1675.4384,0.000078
1677.3020,-0.000077
1679.1657,-0.000025
1681.0294,-0.000039
1682.8930,-0.000249
1684.7567,-0.000465
1686.6204,-0.000286
1688.4840,0.000059
1690.3477,0.000027
1692.2114,-0.000127
1694.0750,-0.000097
1695.9387,0.000021
1697.8024,-0.000054
1699.6661,-0.000053
1701.5297,-0.000197
1703.3934,-0.000120
1705.2571,-0.000109
1707.1207,-0.000165
1708.9844,-0.000028
1710.8481,0.000054
1712.7117,0.000019
1714.5754,0.000045
1716.4391,0.000136
1718.3027,0.000039
1720.1664,-0.000211
1722.0301,-0.000186
1723.8937,-0.000125
1725.7574,-0.000218
1727.6211,-0.000210
1729.4848,0.000020
1731.3484,0.000127
1733.2121,0.000128
1735.0758,-0.000002
1736.9394,-0.000086
1738.8031,-0.000211
1740.6668,-0.000291
1742.5304,-0.000070
1744.3941,-0.000005
1746.2578,0.000024
1748.1214,-0.000052
1749.9851,-0.000210
1751.8488,-0.000142
1753.7125,-0.000117
1755.5761,-0.000047
1757.4398,0.000055
1759.3035,-0.000027
1761.1671,-0.000123
1763.0308,-0.000164
1764.8945,-0.000159
1766.7581,-0.000128
1768.6218,-0.000067
1770.4855,0.000051
1772.3491,0.000071
1774.2128,-0.000046
1776.0765,0.000014
1777.9401,0.000031
1779.8038,-0.000008
1781.6675,-0.000083
1783.5312,-0.000148
1785.3948,-0.000218
1787.2585,-0.000149
1789.1222,0.000015
1790.9858,0.000112
1792.8495,0.000055
1794.7132,-0.000126
1796.5768,-0.000069
1798.4405,0.000038
1800.3042,0.000004
1802.1678,-0.000105
1804.0315,-0.000123
1805.8952,0.000003
1807.7589,0.000031
1809.6225,-0.000100
1811.4862,-0.000264
1813.3499,-0.000172
1815.2135,0.000008
1817.0772,0.000012
1818.9409,-0.000122
1820.8045,-0.000211
1822.6682,-0.000205
1824.5319,-0.000274
1826.3955,-0.000374
1828.2592,-0.000230
1830.1229,-0.000124
1831.9865,-0.000334
1833.8502,-0.000446
1835.7139,-0.000285
1837.5776,0.000044
1839.4412,0.000046
1841.3049,-0.000126
1843.1686,-0.000127
1845.0322,-0.000281
1846.8959,-0.000463
1848.7596,-0.000181
1850.6232,0.000056
1852.4869,-0.000054
1854.3506,-0.000215
1856.2142,-0.000187
1858.0779,-0.000307
1859.9416,-0.000543
1861.8052,-0.000314
1863.6689,0.000053
1865.5326,0.000072
1867.3963,0.000010
1869.2599,-0.000186
1871.1236,-0.000410
1872.9873,-0.000414
1874.8509,-0.000301
1876.7146,-0.000036
1878.5783,0.000108
1880.4419,-0.000010
1882.3056,-0.000356
1884.1693,-0.000625
1886.0329,-0.000300
1887.8966,-0.000065
1889.7603,-0.000183
1891.6240,-0.000342
1893.4876,-0.000436
1895.3513,-0.000174
1897.2150,0.000358
1899.0786,0.000439
1900.9423,-0.000081
1902.8060,-0.000605
1904.6696,-0.000588
1906.5333,-0.000251
1908.3970,-0.000108
1910.2606,-0.000218
1912.1243,-0.000212
1913.9880,0.000016
1915.8516,0.000119
1917.7153,-0.000230
1919.5790,-0.000692
1921.4427,-0.000869
1923.3063,-0.000577
1925.1700,0.000214
1927.0337,0.000318
1928.8973,-0.000383
1930.7610,-0.000630
1932.6247,-0.000421
1934.4883,-0.000187
1936.3520,-0.000460
1938.2157,-0.000818
1940.0793,-0.000375
1941.9430,0.000187
1943.8067,-0.000030
1945.6704,-0.000240
1947.5340,-0.000277
1949.3977,-0.000724
1951.2614,-0.000570
1953.1250,0.000082
1954.9887,-0.000223
1956.8524,-0.000749
1958.7160,-0.000555
1960.5797,-0.000321
1962.4434,-0.000499
1964.3070,-0.000456
1966.1707,-0.000268
1968.0344,0.000237
1969.8980,0.000324
1971.7617,-0.000052
1973.6254,-0.000556
1975.4891,-0.001183
1977.3527,-0.000920
1979.2164,-0.000584
1981.0801,-0.000178
1982.9437,0.000431
1984.8074,0.000013
1986.6711,-0.000456
1988.5347,-0.000320
1990.3984,-0.000398
1992.2621,-0.000192
1994.1257,0.000112
1995.9894,-0.000124
1997.8531,-0.000453
1999.7167,-0.000446
2001.5804,-0.000290
2003.4441,-0.000768
2005.3078,-0.000947
2007.1714,-0.000877
2009.0351,-0.001033
2010.8988,-0.000732
2012.7624,-0.000490
2014.6261,-0.000548
2016.4898,-0.000493
2018.3534,0.000039
2020.2171,0.000067
2022.0808,-0.000766
2023.9444,-0.001256
2025.8081,-0.000653
2027.6718,0.000077
2029.5355,-0.000320
2031.3991,-0.000814
2033.2628,-0.000996
2035.1265,-0.000659
2036.9901,0.000267
2038.8538,0.000470
2040.7175,0.000133
2042.5811,-0.000416
2044.4448,-0.000911
2046.3085,-0.000681
2048.1721,-0.000430
2050.0358,-0.000612
2051.8995,-0.000450
2053.7631,-0.000498
2055.6268,-0.000770
2057.4905,-0.000696
2059.3542,-0.000574
2061.2178,-0.000190
2063.0815,0.000192
2064.9452,0.000066
2066.8088,-0.000078
2068.6725,-0.000343
2070.5362,-0.000783
2072.3998,-0.000571
2074.2635,-0.000193
2076.1272,-0.000298
2077.9908,-0.000185
2079.8545,-0.000051
2081.7182,-0.000046
2083.5819,-0.000184
2085.4455,-0.000631
2087.3092,-0.000467
2089.1729,-0.000311
2091.0365,-0.000381
2092.9002,-0.000004
2094.7639,-0.000070
2096.6275,-0.000288
2098.4912,0.000046
2100.3549,0.000167
2102.2185,0.000059
2104.0822,-0.000321
2105.9459,-0.000808
2107.8095,-0.000493
2109.6732,0.000047
2111.5369,-0.000216
2113.4006,-0.000701
2115.2642,-0.000559
2117.1279,-0.000238
2118.9916,-0.000388
2120.8552,-0.000299
2122.7189,-0.000093
2124.5826,-0.000300
2126.4462,-0.000004
2128.3099,0.000285
2130.1736,-0.000283
2132.0372,-0.000797
2133.9009,-0.000395
2135.7646,0.000031
2137.6282,-0.000260
2139.4919,-0.000611
2141.3556,-0.000745
2143.2193,-0.000266
2145.0829,0.000335
2146.9466,0.000142
2148.8103,-0.000713
2150.6739,-0.000842
2152.5376,0.000046
2154.4013,0.000505
2156.2649,0.000072
2158.1286,-0.000720
2159.9923,-0.001176
2161.8559,-0.000721
2163.7196,-0.000341
2165.5833,-0.000265
2167.4470,-0.000600
2169.3106,-0.000691
2171.1743,0.000253
2173.0380,0.000519
2174.9016,-0.000711
2176.7653,-0.001760
2178.6290,-0.001346
2180.4926,-0.000253
2182.3563,0.000077
2184.2200,-0.000220
2186.0836,-0.000629
2187.9473,-0.000677
2189.8110,-0.000016
2191.6746,0.000674
2193.5383,0.000848
2195.4020,0.000287
2197.2657,-0.000331
2199.1293,-0.000578
2200.9930,-0.000777
2202.8567,-0.000672
2204.7203,-0.000335
2206.5840,-0.000140
2208.4477,-0.000068
2210.3113,-0.000146
2212.1750,-0.000273
2214.0387,-0.000314
2215.9023,-0.000532
2217.7660,-0.000697
2219.6297,-0.000401
2221.4934,-0.000029
2223.3570,0.000084
2225.2207,-0.000148
2227.0844,-0.000432
2228.9480,-0.000556
2230.8117,-0.000505
2232.6754,-0.000414
2234.5390,-0.000466
2236.4027,-0.000273
2238.2664,-0.000255
2240.1300,-0.000650
2241.9937,-0.000425
2243.8574,-0.000076
2245.7210,-0.000426
2247.5847,-0.000400
2249.4484,-0.000311
2251.3121,-0.000686
2253.1757,-0.000684
2255.0394,-0.000393
2256.9031,-0.000368
2258.7667,-0.000519
2260.6304,-0.000447
2262.4941,-0.000327
2264.3577,-0.000052
2266.2214,0.000139
2268.0851,-0.000134
2269.9487,-0.000234
2271.8124,-0.000144
2273.6761,0.000045
2275.5397,0.000174
2277.4034,-0.000160
2279.2671,-0.000340
2281.1308,-0.000254
2282.9944,-0.000275
2284.8581,-0.000115
2286.7218,0.000022
2288.5854,-0.000340
2290.4491,-0.000672
2292.3128,-0.000497
2294.1764,-0.000167
2296.0401,0.000057
2297.9038,0.000093
2299.7674,-0.000037
2301.6311,-0.000153
2303.4948,0.000140
2305.3585,0.000379
2307.2221,0.000254
2309.0858,0.000241
2310.9495,0.000537
2312.8131,0.000802
2314.6768,0.001002
2316.5405,0.001011
2318.4041,0.000668
2320.2678,0.000746
2322.1315,0.000988
2323.9951,0.001268
2325.8588,0.001622
2327.7225,0.001423
2329.5861,0.001217
2331.4498,0.001314
2333.3135,0.001375
2335.1772,0.001421
2337.0408,0.001353
2338.9045,0.001440
2340.7682,0.001427
2342.6318,0.001123
2344.4955,0.001070
2346.3592,0.001158
2348.2228,0.000867
2350.0865,0.000888
2351.9502,0.001327
2353.8138,0.001580
2355.6775,0.001691
2357.5412,0.001836
2359.4049,0.001975
2361.2685,0.001852
2363.1322,0.001916
2364.9959,0.001842
2366.8595,0.001674
2368.7232,0.001509
2370.5869,0.001347
2372.4505,0.001243
2374.3142,0.001162
2376.1779,0.001104
2378.0415,0.000645
2379.9052,0.000098
2381.7689,-0.000142
2383.6325,-0.000128
2385.4962,-0.000082
2387.3599,-0.000238
2389.2236,-0.000456
2391.0872,-0.000325
2392.9509,-0.000037
2394.8146,-0.000118
2396.6782,-0.000216
2398.5419,0.000002
2400.4056,0.000122
2402.2692,-0.000049
2404.1329,-0.000244
2405.9966,-0.000471
2407.8602,-0.000317
2409.7239,0.000119
2411.5876,0.000195
2413.4512,-0.000071
2415.3149,-0.000311
2417.1786,-0.000288
2419.0423,-0.000201
2420.9059,-0.000107
2422.7696,-0.000089
2424.6333,0.000065
2426.4969,0.000035
2428.3606,-0.000411
2430.2243,-0.000243
2432.0879,0.000197
2433.9516,-0.000008
2435.8153,-0.000286
2437.6789,-0.000336
2439.5426,-0.000304
2441.4063,-0.000344
2443.2700,-0.000483
2445.1336,-0.000422
2446.9973,-0.000095
2448.8610,-0.000040
2450.7246,-0.000180
2452.5883,-0.000095
2454.4520,-0.000045
2456.3156,0.000030
2458.1793,0.000175
2460.0430,-0.000025
2461.9066,-0.000235
2463.7703,0.000089
2465.6340,0.000135
2467.4976,-0.000161
2469.3613,-0.000261
2471.2250,-0.000485
2473.0887,-0.000596
2474.9523,-0.000269
2476.8160,0.000032
2478.6797,-0.000007
2480.5433,-0.000267
2482.4070,-0.000095
2484.2707,0.000098
2486.1343,-0.000066
2487.9980,-0.000031
2489.8617,0.000051
2491.7253,-0.000056
2493.5890,-0.000183
2495.4527,-0.000304
2497.3164,-0.000191
2499.1800,0.000074
2501.0437,0.000098
2502.9074,0.000233
2504.7710,0.000056
2506.6347,-0.000761
2508.4984,-0.001067
2510.3620,-0.000591
2512.2257,-0.000061
2514.0894,-0.000227
2515.9530,-0.000740
2517.8167,-0.000589
2519.6804,-0.000254
2521.5440,-0.000157
2523.4077,0.000096
2525.2714,-0.000035
2527.1351,-0.000242
