Wavenumber,Intensity
650.4205,0.009250
652.2841,0.008328
654.1478,0.009295
656.0115,0.009054
657.8751,0.008712
659.7388,0.009431
661.6025,0.010165
663.4661,0.010875
665.3298,0.010282
667.1935,0.009620
669.0571,0.009800
670.9208,0.009550
672.7845,0.009216
674.6481,0.009860
676.5118,0.011222
678.3755,0.010573
680.2392,0.008446
682.1028,0.007791
683.9665,0.008958
685.8302,0.009274
687.6938,0.008797
689.5575,0.009109
691.4212,0.009975
693.2848,0.009843
695.1485,0.009155
697.0122,0.008561
698.8758,0.008197
700.7395,0.008344
702.6032,0.008825
704.4669,0.009042
706.3305,0.008514
708.1942,0.007941
710.0579,0.008193
711.9215,0.008513
713.7852,0.008577
715.6489,0.008363
717.5125,0.008009
719.3762,0.007743
721.2399,0.007840
723.1035,0.008345
724.9672,0.008292
726.8309,0.008053
728.6945,0.008042
730.5582,0.007847
732.4219,0.007694
734.2856,0.008004
736.1492,0.008046
738.0129,0.007721
739.8766,0.007759
741.7402,0.007523
743.6039,0.007322
745.4676,0.007500
747.3312,0.007582
749.1949,0.007649
751.0586,0.007619
752.9222,0.007777
754.7859,0.007909
756.6496,0.007483
758.5132,0.007313
760.3769,0.007191
762.2406,0.006910
764.1043,0.007311
765.9679,0.007829
767.8316,0.007533
769.6953,0.007121
771.5589,0.007183
773.4226,0.007130
775.2863,0.007053
777.1499,0.007169
779.0136,0.007030
780.8773,0.006733
782.7409,0.006799
784.6046,0.006947
786.4683,0.006767
788.3320,0.006686
790.1956,0.006825
792.0593,0.006863
793.9230,0.006659
795.7866,0.006550
797.6503,0.006610
799.5140,0.006477
801.3776,0.006246
803.2413,0.006170
805.1050,0.006238
806.9686,0.006399
808.8323,0.006161
810.6960,0.005729
812.5596,0.005834
814.4233,0.006105
816.2870,0.006067
818.1507,0.005935
820.0143,0.006098
821.8780,0.006285
823.7417,0.006242
825.6053,0.006146
827.4690,0.006017
829.3327,0.005989
831.1963,0.006119
833.0600,0.006204
834.9237,0.006133
836.7873,0.006235
838.6510,0.006438
840.5147,0.006416
842.3784,0.006537
844.2420,0.006642
846.1057,0.006528
847.9694,0.006526
849.8330,0.006677
851.6967,0.006896
853.5604,0.007135
855.4240,0.007366
857.2877,0.007430
859.1514,0.007509
861.0150,0.007813
862.8787,0.008069
864.7424,0.008259
866.6060,0.008553
868.4697,0.008889
870.3334,0.009304
872.1971,0.009760
874.0607,0.010145
875.9244,0.010417
877.7881,0.010374
879.6517,0.010028
881.5154,0.009621
883.3791,0.009188
885.2427,0.008858
887.1064,0.008777
888.9701,0.008746
890.8337,0.008729
892.6974,0.008833
894.5611,0.008912
896.4247,0.009053
898.2884,0.009270
900.1521,0.009375
902.0158,0.009441
903.8794,0.009538
905.7431,0.009817
907.6068,0.010083
909.4704,0.009972
911.3341,0.009916
913.1978,0.010073
915.0614,0.010275
916.9251,0.010416
918.7888,0.010495
920.6524,0.010682
922.5161,0.010866
924.3798,0.010986
926.2435,0.011091
928.1071,0.011203
929.9708,0.011324
931.8345,0.011468
933.6981,0.011722
935.5618,0.011995
937.4255,0.012138
939.2891,0.012313
941.1528,0.012554
943.0165,0.012744
944.8801,0.012930
946.7438,0.013198
948.6075,0.013478
950.4711,0.013704
952.3348,0.013913
954.1985,0.014151
956.0622,0.014516
957.9258,0.014945
959.7895,0.015347
961.6532,0.015636
963.5168,0.015854
965.3805,0.016128
967.2442,0.016349
969.1078,0.016540
970.9715,0.016793
972.8352,0.017100
974.6988,0.017498
976.5625,0.017924
978.4262,0.018367
980.2899,0.018765
982.1535,0.019102
984.0172,0.019510
985.8809,0.019869
987.7445,0.020146
989.6082,0.020533
991.4719,0.020940
993.3355,0.021253
995.1992,0.021484
997.0629,0.021705
998.9265,0.022022
1000.7902,0.022283
1002.6539,0.022502
1004.5175,0.022732
1006.3812,0.022904
1008.2449,0.023077
1010.1086,0.023185
1011.9722,0.023297
1013.8359,0.023443
1015.6996,0.023497
1017.5632,0.023535
1019.4269,0.023615
1021.2906,0.023602
1023.1542,0.023466
1025.0179,0.023369
1026.8816,0.023336
1028.7452,0.023296
1030.6089,0.023267
1032.4726,0.023116
1034.3362,0.022844
1036.1999,0.022639
1038.0636,0.022387
1039.9273,0.022025
1041.7909,0.021615
1043.6546,0.021184
1045.5183,0.020793
1047.3819,0.020381
1049.2456,0.019845
1051.1093,0.019341
1052.9729,0.018980
1054.8366,0.018577
1056.7003,0.018026
1058.5639,0.017526
1060.4276,0.017058
1062.2913,0.016551
1064.1550,0.016121
1066.0186,0.015644
1067.8823,0.015209
1069.7460,0.014857
1071.6096,0.014520
1073.4733,0.014239
1075.3370,0.013933
1077.2006,0.013582
1079.0643,0.013225
1080.9280,0.012791
1082.7916,0.012453
1084.6553,0.012402
1086.5190,0.012339
1088.3826,0.012291
1090.2463,0.012438
1092.1100,0.012446
1093.9737,0.012285
1095.8373,0.012088
1097.7010,0.011851
1099.5647,0.011519
1101.4283,0.011163
1103.2920,0.010942
1105.1557,0.010747
1107.0193,0.010546
1108.8830,0.010337
1110.7467,0.010082
1112.6103,0.009856
1114.4740,0.009637
1116.3377,0.009391
1118.2014,0.009138
1120.0650,0.008900
1121.9287,0.008644
1123.7924,0.008396
1125.6560,0.008142
1127.5197,0.007950
1129.3834,0.007858
1131.2470,0.007684
1133.1107,0.007497
1134.9744,0.007372
1136.8380,0.007230
1138.7017,0.007099
1140.5654,0.007005
1142.4290,0.006901
1144.2927,0.006775
1146.1564,0.006611
1148.0201,0.006431
1149.8837,0.006333
1151.7474,0.006283
1153.6111,0.006094
1155.4747,0.005916
1157.3384,0.005806
1159.2021,0.005716
1161.0657,0.005579
1162.9294,0.005419
1164.7931,0.005307
1166.6567,0.005160
1168.5204,0.004981
1170.3841,0.004784
1172.2477,0.004644
1174.1114,0.004489
1175.9751,0.004240
1177.8388,0.004049
1179.7024,0.003925
1181.5661,0.003817
1183.4298,0.003657
1185.2934,0.003460
1187.1571,0.003356
1189.0208,0.003344
1190.8844,0.003305
1192.7481,0.003166
1194.6118,0.003016
1196.4754,0.002908
1198.3391,0.002838
1200.2028,0.002796
1202.0665,0.002729
1203.9301,0.002650
1205.7938,0.002597
1207.6575,0.002519
1209.5211,0.002394
1211.3848,0.002334
1213.2485,0.002376
1215.1121,0.002405
1216.9758,0.002375
1218.8395,0.002343
1220.7031,0.002260
1222.5668,0.002206
1224.4305,0.002201
1226.2941,0.002190
1228.1578,0.002170
1230.0215,0.002128
1231.8852,0.002092
1233.7488,0.002147
1235.6125,0.002189
1237.4762,0.002158
1239.3398,0.002071
1241.2035,0.002070
1243.0672,0.002085
1244.9308,0.002003
1246.7945,0.002014
1248.6582,0.002026
1250.5218,0.002006
1252.3855,0.002044
1254.2492,0.002045
1256.1129,0.002006
1257.9765,0.001986
1259.8402,0.001999
1261.7039,0.001929
1263.5675,0.001852
1265.4312,0.001926
1267.2949,0.002012
1269.1585,0.001997
1271.0222,0.001966
1272.8859,0.001984
1274.7495,0.002007
1276.6132,0.001975
1278.4769,0.001952
1280.3405,0.001987
1282.2042,0.002075
1284.0679,0.002031
1285.9316,0.001989
1287.7952,0.002057
1289.6589,0.002116
1291.5226,0.002119
1293.3862,0.002120
1295.2499,0.002137
1297.1136,0.002115
1298.9772,0.002157
1300.8409,0.002198
1302.7046,0.002203
1304.5682,0.002176
1306.4319,0.002143
1308.2956,0.002157
1310.1592,0.002240
1312.0229,0.002375
1313.8866,0.002413
1315.7503,0.002445
1317.6139,0.002496
1319.4776,0.002456
1321.3413,0.002353
1323.2049,0.002386
1325.0686,0.002379
1326.9323,0.002312
1328.7959,0.002392
1330.6596,0.002502
1332.5233,0.002484
1334.3869,0.002434
1336.2506,0.002567
1338.1143,0.002868
1339.9780,0.002978
1341.8416,0.002808
1343.7053,0.002663
1345.5690,0.002728
1347.4326,0.002795
1349.2963,0.002776
1351.1600,0.002661
1353.0236,0.002666
1354.8873,0.002878
1356.7510,0.002994
1358.6146,0.002929
1360.4783,0.003138
1362.3420,0.003474
1364.2056,0.003502
1366.0693,0.003235
1367.9330,0.003151
1369.7967,0.003287
1371.6603,0.003408
1373.5240,0.003657
1375.3877,0.003845
1377.2513,0.003675
1379.1150,0.003582
1380.9787,0.003721
1382.8423,0.003633
1384.7060,0.003796
1386.5697,0.004173
1388.4333,0.004439
1390.2970,0.004236
1392.1607,0.004131
1394.0244,0.004439
1395.8880,0.004929
1397.7517,0.005009
1399.6154,0.004955
1401.4790,0.005051
1403.3427,0.004862
1405.2064,0.005155
1407.0700,0.005251
1408.9337,0.005233
1410.7974,0.005396
1412.6610,0.005619
1414.5247,0.005546
1416.3884,0.005729
1418.2520,0.006206
1420.1157,0.006839
1421.9794,0.006629
1423.8431,0.006133
1425.7067,0.006272
1427.5704,0.006183
1429.4341,0.006337
1431.2977,0.006452
1433.1614,0.006152
1435.0251,0.006007
1436.8887,0.006525
1438.7524,0.006812
1440.6161,0.006075
1442.4797,0.005923
1444.3434,0.005884
1446.2071,0.005888
1448.0707,0.006114
1449.9344,0.006169
1451.7981,0.005851
1453.6618,0.005842
1455.5254,0.005969
1457.3891,0.006986
1459.2528,0.006917
1461.1164,0.005764
1462.9801,0.005410
1464.8438,0.005725
1466.7074,0.005882
1468.5711,0.005241
1470.4348,0.005081
1472.2984,0.005381
1474.1621,0.006105
1476.0258,0.005733
1477.8895,0.005349
1479.7531,0.004968
1481.6168,0.004845
1483.4805,0.004871
1485.3441,0.004686
1487.2078,0.004991
1489.0715,0.005608
1490.9351,0.005669
1492.7988,0.004948
1494.6625,0.004341
1496.5261,0.004797
1498.3898,0.005300
1500.2535,0.004898
1502.1171,0.004334
1503.9808,0.004054
1505.8445,0.004626
1507.7082,0.006329
1509.5718,0.005833
1511.4355,0.004791
1513.2992,0.004587
1515.1628,0.004532
1517.0265,0.004648
1518.8902,0.004776
1520.7538,0.004614
1522.6175,0.005143
1524.4812,0.004506
1526.3448,0.004257
1528.2085,0.004208
1530.0722,0.003603
1531.9359,0.003588
1533.7995,0.004250
1535.6632,0.004075
1537.5269,0.002808
1539.3905,0.003718
1541.2542,0.005505
1543.1179,0.004957
1544.9815,0.004241
1546.8452,0.004045
1548.7089,0.003560
1550.5725,0.003635
1552.4362,0.003384
1554.2999,0.003018
1556.1635,0.003382
1558.0272,0.003782
1559.8909,0.005668
1561.7546,0.004597
1563.6182,0.003138
1565.4819,0.003107
1567.3456,0.003240
1569.2092,0.003394
1571.0729,0.003825
1572.9366,0.003239
1574.8002,0.002990
1576.6639,0.003837
1578.5276,0.003951
1580.3912,0.003265
1582.2549,0.003274
1584.1186,0.003299
1585.9822,0.003201
1587.8459,0.003118
1589.7096,0.003094
1591.5733,0.003113
1593.4369,0.003225
1595.3006,0.003445
1597.1643,0.003446
1599.0279,0.003392
1600.8916,0.003413
1602.7553,0.003411
1604.6189,0.003548
1606.4826,0.003731
1608.3463,0.003815
1610.2099,0.003756
1612.0736,0.003353
1613.9373,0.003231
1615.8010,0.003498
1617.6646,0.004574
1619.5283,0.004310
1621.3920,0.003549
1623.2556,0.003759
1625.1193,0.004383
1626.9830,0.004351
1628.8466,0.004515
1630.7103,0.004039
1632.5740,0.003565
1634.4376,0.003889
1636.3013,0.005024
1638.1650,0.004884
1640.0286,0.003976
1641.8923,0.003737
1643.7560,0.003685
1645.6197,0.004153
1647.4833,0.005218
1649.3470,0.004768
1651.2107,0.003569
1653.0743,0.004819
1654.9380,0.006056
1656.8017,0.004340
1658.6653,0.003599
1660.5290,0.003451
1662.3927,0.003645
1664.2563,0.004056
1666.1200,0.003666
1667.9837,0.003515
1669.8474,0.003878
1671.7110,0.003959
1673.5747,0.003411
1675.4384,0.003348
1677.3020,0.003499
1679.1657,0.002920
1681.0294,0.003210
1682.8930,0.003429
1684.7567,0.004528
1686.6204,0.004159
1688.4840,0.002863
1690.3477,0.002738
1692.2114,0.002609
1694.0750,0.002337
1695.9387,0.002895
1697.8024,0.003594
1699.6661,0.002618
1701.5297,0.003828
1703.3934,0.002901
1705.2571,0.002288
1707.1207,0.002670
1708.9844,0.002265
1710.8481,0.002140
1712.7117,0.002201
1714.5754,0.002458
1716.4391,0.002665
1718.3027,0.002796
1720.1664,0.002878
1722.0301,0.002044
1723.8937,0.001948
1725.7574,0.001933
1727.6211,0.001788
1729.4848,0.001898
1731.3484,0.002036
1733.2121,0.001821
1735.0758,0.003014
1736.9394,0.002479
1738.8031,0.001535
1740.6668,0.002074
1742.5304,0.002085
1744.3941,0.001952
1746.2578,0.001736
1748.1214,0.001829
1749.9851,0.002296
1751.8488,0.002492
1753.7125,0.002264
1755.5761,0.001695
1757.4398,0.002056
1759.3035,0.001987
1761.1671,0.001782
1763.0308,0.002246
1764.8945,0.001969
1766.7581,0.001626
1768.6218,0.002050
1770.4855,0.002252
1772.3491,0.002423
1774.2128,0.002644
1776.0765,0.002078
1777.9401,0.002005
1779.8038,0.001968
1781.6675,0.002104
1783.5312,0.001886
1785.3948,0.001985
1787.2585,0.001971
1789.1222,0.002002
1790.9858,0.002311
1792.8495,0.002829
1794.7132,0.002651
1796.5768,0.002098
1798.4405,0.001897
1800.3042,0.002045
1802.1678,0.002380
1804.0315,0.002130
1805.8952,0.001881
1807.7589,0.001962
1809.6225,0.002163
1811.4862,0.002209
1813.3499,0.002009
1815.2135,0.001599
1817.0772,0.001617
1818.9409,0.001944
1820.8045,0.002126
1822.6682,0.002088
1824.5319,0.002160
1826.3955,0.002456
1828.2592,0.002238
1830.1229,0.002472
1831.9865,0.002617
1833.8502,0.002210
1835.7139,0.002204
1837.5776,0.002198
1839.4412,0.002071
1841.3049,0.001855
1843.1686,0.002072
1845.0322,0.002857
1846.8959,0.002772
1848.7596,0.002302
1850.6232,0.002184
1852.4869,0.002141
1854.3506,0.002451
1856.2142,0.002639
1858.0779,0.002560
1859.9416,0.002203
1861.8052,0.002194
1863.6689,0.002120
1865.5326,0.001946
1867.3963,0.002032
1869.2599,0.002635
1871.1236,0.002545
1872.9873,0.002289
1874.8509,0.002382
1876.7146,0.002425
1878.5783,0.002450
1880.4419,0.002399
1882.3056,0.002309
1884.1693,0.002473
1886.0329,0.002296
1887.8966,0.002485
1889.7603,0.002831
1891.6240,0.002877
1893.4876,0.002808
1895.3513,0.002714
1897.2150,0.002506
1899.0786,0.002748
1900.9423,0.002601
1902.8060,0.002402
1904.6696,0.002414
1906.5333,0.002776
1908.3970,0.002894
1910.2606,0.002679
1912.1243,0.002606
1913.9880,0.002915
1915.8516,0.003041
1917.7153,0.003115
1919.5790,0.002993
1921.4427,0.002849
1923.3063,0.002956
1925.1700,0.003072
1927.0337,0.002735
1928.8973,0.002228
1930.7610,0.002268
1932.6247,0.002768
1934.4883,0.002978
1936.3520,0.002671
1938.2157,0.002292
1940.0793,0.002203
1941.9430,0.002566
1943.8067,0.002925
1945.6704,0.002681
1947.5340,0.002949
1949.3977,0.002755
1951.2614,0.002539
1953.1250,0.002900
1954.9887,0.003017
1956.8524,0.003111
1958.7160,0.003034
1960.5797,0.003275
1962.4434,0.003145
1964.3070,0.003061
1966.1707,0.003739
1968.0344,0.003375
1969.8980,0.002711
1971.7617,0.002567
1973.6254,0.003212
1975.4891,0.003299
1977.3527,0.003026
1979.2164,0.003986
1981.0801,0.004379
1982.9437,0.003850
1984.8074,0.003353
1986.6711,0.003040
1988.5347,0.002477
1990.3984,0.002382
1992.2621,0.003761
1994.1257,0.004169
1995.9894,0.003856
1997.8531,0.004209
1999.7167,0.004305
2001.5804,0.003525
2003.4441,0.003109
2005.3078,0.002699
2007.1714,0.003302
2009.0351,0.004282
2010.8988,0.003668
2012.7624,0.002947
2014.6261,0.003434
2016.4898,0.003366
2018.3534,0.003458
2020.2171,0.004172
2022.0808,0.004210
2023.9444,0.004031
2025.8081,0.004078
2027.6718,0.003818
2029.5355,0.003666
2031.3991,0.003252
2033.2628,0.003116
2035.1265,0.003271
2036.9901,0.003841
2038.8538,0.003995
2040.7175,0.002942
2042.5811,0.002764
2044.4448,0.003267
2046.3085,0.002978
2048.1721,0.003477
2050.0358,0.004572
2051.8995,0.004559
2053.7631,0.004013
2055.6268,0.004130
2057.4905,0.004131
2059.3542,0.003656
2061.2178,0.003581
2063.0815,0.003587
2064.9452,0.003373
2066.8088,0.003404
2068.6725,0.003343
2070.5362,0.003390
2072.3998,0.003381
2074.2635,0.003461
2076.1272,0.003615
2077.9908,0.003685
2079.8545,0.003655
2081.7182,0.003298
2083.5819,0.003453
2085.4455,0.003892
2087.3092,0.003665
2089.1729,0.003429
2091.0365,0.003403
2092.9002,0.003273
2094.7639,0.003282
2096.6275,0.003667
2098.4912,0.003174
2100.3549,0.003170
2102.2185,0.003716
2104.0822,0.003710
2105.9459,0.003206
2107.8095,0.003146
2109.6732,0.003111
2111.5369,0.003417
2113.4006,0.003868
2115.2642,0.004101
2117.1279,0.004158
2118.9916,0.003723
2120.8552,0.002998
2122.7189,0.002992
2124.5826,0.003203
2126.4462,0.002890
2128.3099,0.002390
2130.1736,0.002500
2132.0372,0.003066
2133.9009,0.003581
2135.7646,0.003287
2137.6282,0.003550
2139.4919,0.004338
2141.3556,0.004234
2143.2193,0.003347
2145.0829,0.002990
2146.9466,0.002878
2148.8103,0.002971
2150.6739,0.002988
2152.5376,0.003016
2154.4013,0.002813
2156.2649,0.002562
2158.1286,0.003129
2159.9923,0.004023
2161.8559,0.004618
2163.7196,0.005040
2165.5833,0.004374
2167.4470,0.003999
2169.3106,0.003947
2171.1743,0.003889
2173.0380,0.004396
2174.9016,0.004333
2176.7653,0.003916
2178.6290,0.003509
2180.4926,0.003586
2182.3563,0.003614
2184.2200,0.003924
2186.0836,0.004403
2187.9473,0.003949
2189.8110,0.004092
2191.6746,0.004879
2193.5383,0.004872
2195.4020,0.004189
2197.2657,0.003822
2199.1293,0.003727
2200.9930,0.003984
2202.8567,0.004071
2204.7203,0.003902
2206.5840,0.004017
2208.4477,0.004329
2210.3113,0.003850
2212.1750,0.003854
2214.0387,0.004377
2215.9023,0.004386
2217.7660,0.004166
2219.6297,0.004470
2221.4934,0.004437
2223.3570,0.004370
2225.2207,0.004208
2227.0844,0.003879
2228.9480,0.003677
2230.8117,0.003898
2232.6754,0.004480
2234.5390,0.004587
2236.4027,0.004204
2238.2664,0.004240
2240.1300,0.004167
2241.9937,0.004080
2243.8574,0.004240
2245.7210,0.003951
2247.5847,0.003877
2249.4484,0.004127
2251.3121,0.003987
2253.1757,0.004151
2255.0394,0.004570
2256.9031,0.004801
2258.7667,0.004779
2260.6304,0.004853
2262.4941,0.004241
2264.3577,0.004047
2266.2214,0.004149
2268.0851,0.004001
2269.9487,0.003910
2271.8124,0.004043
2273.6761,0.004369
2275.5397,0.004565
2277.4034,0.004506
2279.2671,0.004396
2281.1308,0.004280
2282.9944,0.004499
2284.8581,0.004739
2286.7218,0.004669
2288.5854,0.004481
2290.4491,0.004490
2292.3128,0.004335
2294.1764,0.004266
2296.0401,0.004529
2297.9038,0.004678
2299.7674,0.004383
2301.6311,0.004356
2303.4948,0.004467
2305.3585,0.004653
2307.2221,0.004557
2309.0858,0.004237
2310.9495,0.004154
2312.8131,0.004270
2314.6768,0.004445
2316.5405,0.004358
2318.4041,0.004450
2320.2678,0.004883
2322.1315,0.005214
2323.9951,0.005208
2325.8588,0.004838
2327.7225,0.004470
2329.5861,0.004182
2331.4498,0.004436
2333.3135,0.004540
2335.1772,0.004342
2337.0408,0.004339
2338.9045,0.004419
2340.7682,0.004501
2342.6318,0.004919
2344.4955,0.004906
2346.3592,0.004700
2348.2228,0.004195
2350.0865,0.003503
2351.9502,0.003650
2353.8138,0.004170
2355.6775,0.004293
2357.5412,0.004727
2359.4049,0.005448
2361.2685,0.005405
2363.1322,0.005044
2364.9959,0.005074
2366.8595,0.004973
2368.7232,0.004740
2370.5869,0.004664
2372.4505,0.004463
2374.3142,0.004316
2376.1779,0.004201
2378.0415,0.004083
2379.9052,0.004028
2381.7689,0.003916
2383.6325,0.004129
2385.4962,0.004164
2387.3599,0.003863
2389.2236,0.003908
2391.0872,0.003874
2392.9509,0.003813
2394.8146,0.003833
2396.6782,0.003835
2398.5419,0.004056
2400.4056,0.004243
2402.2692,0.004319
2404.1329,0.004023
2405.9966,0.003667
2407.8602,0.003818
2409.7239,0.004291
2411.5876,0.004394
2413.4512,0.004155
2415.3149,0.004105
2417.1786,0.003983
2419.0423,0.003990
2420.9059,0.004209
2422.7696,0.004269
2424.6333,0.004447
2426.4969,0.004581
2428.3606,0.004312
2430.2243,0.004161
2432.0879,0.004177
2433.9516,0.004096
2435.8153,0.004152
2437.6789,0.004315
2439.5426,0.004327
2441.4063,0.004262
2443.2700,0.004647
2445.1336,0.004702
2446.9973,0.004400
2448.8610,0.004274
2450.7246,0.004379
2452.5883,0.004429
2454.4520,0.004331
2456.3156,0.004126
2458.1793,0.003870
2460.0430,0.004331
2461.9066,0.005003
2463.7703,0.004623
2465.6340,0.004280
2467.4976,0.004247
2469.3613,0.004076
2471.2250,0.004135
2473.0887,0.004280
2474.9523,0.004245
2476.8160,0.004291
2478.6797,0.004432
2480.5433,0.004259
2482.4070,0.004188
2484.2707,0.004331
2486.1343,0.004613
2487.9980,0.004829
2489.8617,0.004407
2491.7253,0.004069
2493.5890,0.004121
2495.4527,0.004493
2497.3164,0.005040
2499.1800,0.005215
2501.0437,0.004821
2502.9074,0.004635
2504.7710,0.004299
2506.6347,0.003975
2508.4984,0.004557
2510.3620,0.005070
2512.2257,0.004753
2514.0894,0.004540
2515.9530,0.004687
2517.8167,0.004877
2519.6804,0.004609
2521.5440,0.004161
2523.4077,0.004260
2525.2714,0.004452
2527.1351,0.004098
2528.9987,0.004369
2530.8624,0.004887
2532.7261,0.004775
2534.5897,0.004483
2536.4534,0.004550
2538.3171,0.004637
2540.1807,0.004416
2542.0444,0.004486
2543.9081,0.004622
2545.7717,0.004678
2547.6354,0.004751
2549.4991,0.004646
2551.3627,0.004419
2553.2264,0.004358
2555.0901,0.004597
2556.9538,0.004756
2558.8174,0.004846
2560.6811,0.004701
2562.5448,0.004719
2564.4084,0.004781
2566.2721,0.005002
2568.1358,0.005149
2569.9994,0.004786
2571.8631,0.004453
2573.7268,0.004534
2575.5904,0.004714
2577.4541,0.004670
2579.3178,0.004413
2581.1815,0.004415
2583.0451,0.004554
2584.9088,0.004744
2586.7725,0.004940
2588.6361,0.005204
2590.4998,0.005142
2592.3635,0.004878
2594.2271,0.004867
2596.0908,0.004844
2597.9545,0.004559
2599.8181,0.004787
2601.6818,0.005016
2603.5455,0.004709
2605.4091,0.004836
2607.2728,0.004866
2609.1365,0.004690
2611.0002,0.004934
2612.8638,0.004907
2614.7275,0.004693
2616.5912,0.004666
2618.4548,0.004833
2620.3185,0.004971
2622.1822,0.005054
2624.0458,0.004930
2625.9095,0.004772
