Wavenumber,Intensity
650.4205,0.008628
652.2841,0.007401
654.1478,0.005931
656.0115,0.005792
657.8751,0.005602
659.7388,0.005425
661.6025,0.004984
663.4661,0.003727
665.3298,0.000454
667.1935,0.007051
669.0571,0.011361
670.9208,0.008625
672.7845,0.002033
674.6481,0.001867
676.5118,0.002630
678.3755,0.003395
680.2392,0.003140
682.1028,0.003645
683.9665,0.003189
685.8302,0.001402
687.6938,0.000769
689.5575,0.002179
691.4212,0.002079
693.2848,0.001339
695.1485,0.000527
697.0122,0.001067
698.8758,0.001113
700.7395,0.000603
702.6032,0.000424
704.4669,0.000707
706.3305,-0.000148
708.1942,-0.000355
710.0579,-0.000187
711.9215,-0.000116
713.7852,-0.000880
715.6489,-0.001351
717.5125,-0.001667
719.3762,-0.001273
721.2399,-0.001652
723.1035,-0.001902
724.9672,-0.001595
726.8309,-0.001536
728.6945,-0.002149
730.5582,-0.001830
732.4219,-0.001676
734.2856,-0.001964
736.1492,-0.002699
738.0129,-0.003024
739.8766,-0.002815
741.7402,-0.002770
743.6039,-0.003004
745.4676,-0.002630
747.3312,-0.002686
749.1949,-0.003309
751.0586,-0.004195
752.9222,-0.003973
754.7859,-0.003314
756.6496,-0.003174
758.5132,-0.003578
760.3769,-0.003259
762.2406,-0.003249
764.1043,-0.003440
765.9679,-0.003635
767.8316,-0.003690
769.6953,-0.003950
771.5589,-0.004129
773.4226,-0.003935
775.2863,-0.003753
777.1499,-0.004079
779.0136,-0.003935
780.8773,-0.004015
782.7409,-0.004044
784.6046,-0.004211
786.4683,-0.004559
788.3320,-0.004988
790.1956,-0.004779
792.0593,-0.004782
793.9230,-0.004739
795.7866,-0.004683
797.6503,-0.004816
799.5140,-0.005213
801.3776,-0.005138
803.2413,-0.004851
805.1050,-0.004700
806.9686,-0.005022
808.8323,-0.005250
810.6960,-0.005428
812.5596,-0.005565
814.4233,-0.005743
816.2870,-0.005542
818.1507,-0.005544
820.0143,-0.005678
821.8780,-0.005705
823.7417,-0.005324
825.6053,-0.005379
827.4690,-0.005653
829.3327,-0.005588
831.1963,-0.005103
833.0600,-0.005299
834.9237,-0.005559
836.7873,-0.005412
838.6510,-0.005422
840.5147,-0.005690
842.3784,-0.005603
844.2420,-0.005264
846.1057,-0.005104
847.9694,-0.005369
849.8330,-0.005185
851.6967,-0.004772
853.5604,-0.004686
855.4240,-0.004960
857.2877,-0.004927
859.1514,-0.004913
861.0150,-0.004844
862.8787,-0.004840
864.7424,-0.004553
866.6060,-0.004259
868.4697,-0.004155
870.3334,-0.004355
872.1971,-0.004096
874.0607,-0.003747
875.9244,-0.003820
877.7881,-0.004161
879.6517,-0.004089
881.5154,-0.003906
883.3791,-0.003996
885.2427,-0.004027
887.1064,-0.003540
888.9701,-0.003415
890.8337,-0.003664
892.6974,-0.003785
894.5611,-0.003489
896.4247,-0.003377
898.2884,-0.003502
900.1521,-0.003779
902.0158,-0.003694
903.8794,-0.003371
905.7431,-0.003194
907.6068,-0.003172
909.4704,-0.003102
911.3341,-0.003333
913.1978,-0.003344
915.0614,-0.003131
916.9251,-0.002826
918.7888,-0.002996
920.6524,-0.003137
922.5161,-0.002971
924.3798,-0.002743
926.2435,-0.002934
928.1071,-0.002804
929.9708,-0.002447
931.8345,-0.002323
933.6981,-0.002479
935.5618,-0.002359
937.4255,-0.002279
939.2891,-0.002179
941.1528,-0.002150
943.0165,-0.001959
944.8801,-0.001860
946.7438,-0.001711
948.6075,-0.001564
950.4711,-0.001341
952.3348,-0.001223
954.1985,-0.001073
956.0622,-0.001171
957.9258,-0.001003
959.7895,-0.000880
961.6532,-0.000857
963.5168,-0.000755
965.3805,-0.000453
967.2442,-0.000163
969.1078,-0.000018
970.9715,0.000046
972.8352,0.000234
974.6988,0.000265
976.5625,0.000379
978.4262,0.000536
980.2899,0.000740
982.1535,0.000700
984.0172,0.000767
985.8809,0.000970
987.7445,0.001098
989.6082,0.000945
991.4719,0.001005
993.3355,0.001254
995.1992,0.001468
997.0629,0.001318
998.9265,0.001370
1000.7902,0.001459
1002.6539,0.001376
1004.5175,0.001087
1006.3812,0.001121
1008.2449,0.001244
1010.1086,0.001228
1011.9722,0.000988
1013.8359,0.000985
1015.6996,0.001087
1017.5632,0.001101
1019.4269,0.001059
1021.2906,0.001000
1023.1542,0.000897
1025.0179,0.000859
1026.8816,0.000740
1028.7452,0.000783
1030.6089,0.000851
1032.4726,0.000728
1034.3362,0.000437
1036.1999,0.000370
1038.0636,0.000246
1039.9273,0.000038
1041.7909,-0.000053
1043.6546,0.000030
1045.5183,-0.000159
1047.3819,-0.000357
1049.2456,-0.000394
1051.1093,-0.000426
1052.9729,-0.000687
1054.8366,-0.000896
1056.7003,-0.000979
1058.5639,-0.000895
1060.4276,-0.001084
1062.2913,-0.001300
1064.1550,-0.001473
1066.0186,-0.001595
1067.8823,-0.001879
1069.7460,-0.002194
1071.6096,-0.002369
1073.4733,-0.002332
1075.3370,-0.002444
1077.2006,-0.002511
1079.0643,-0.002550
1080.9280,-0.002583
1082.7916,-0.002767
1084.6553,-0.002773
1086.5190,-0.002853
1088.3826,-0.003027
1090.2463,-0.003237
1092.1100,-0.003160
1093.9737,-0.003210
1095.8373,-0.003339
1097.7010,-0.003414
1099.5647,-0.003320
1101.4283,-0.003346
1103.2920,-0.003380
1105.1557,-0.003449
1107.0193,-0.003353
1108.8830,-0.003381
1110.7467,-0.003510
1112.6103,-0.003565
1114.4740,-0.003459
1116.3377,-0.003518
1118.2014,-0.003512
1120.0650,-0.003544
1121.9287,-0.003546
1123.7924,-0.003651
1125.6560,-0.003740
1127.5197,-0.003763
1129.3834,-0.003635
1131.2470,-0.003746
1133.1107,-0.003812
1134.9744,-0.003725
1136.8380,-0.003622
1138.7017,-0.003872
1140.5654,-0.003875
1142.4290,-0.003743
1144.2927,-0.003698
1146.1564,-0.003853
1148.0201,-0.003780
1149.8837,-0.003733
1151.7474,-0.003782
1153.6111,-0.004022
1155.4747,-0.004070
1157.3384,-0.004114
1159.2021,-0.004167
1161.0657,-0.004236
1162.9294,-0.004195
1164.7931,-0.004284
1166.6567,-0.004368
1168.5204,-0.004554
1170.3841,-0.004613
1172.2477,-0.004666
1174.1114,-0.004728
1175.9751,-0.005001
1177.8388,-0.005167
1179.7024,-0.005211
1181.5661,-0.005274
1183.4298,-0.005385
1185.2934,-0.005299
1187.1571,-0.005231
1189.0208,-0.005310
1190.8844,-0.005469
1192.7481,-0.005398
1194.6118,-0.005509
1196.4754,-0.005482
1198.3391,-0.005350
1200.2028,-0.005246
1202.0665,-0.005493
1203.9301,-0.005494
1205.7938,-0.005465
1207.6575,-0.005428
1209.5211,-0.005470
1211.3848,-0.005344
1213.2485,-0.005311
1215.1121,-0.005450
1216.9758,-0.005580
1218.8395,-0.005405
1220.7031,-0.005379
1222.5668,-0.005360
1224.4305,-0.005276
1226.2941,-0.005119
1228.1578,-0.005255
1230.0215,-0.005279
1231.8852,-0.005367
1233.7488,-0.005253
1235.6125,-0.005249
1237.4762,-0.005201
1239.3398,-0.005238
1241.2035,-0.005208
1243.0672,-0.005159
1244.9308,-0.005055
1246.7945,-0.005328
1248.6582,-0.005307
1250.5218,-0.005426
1252.3855,-0.005549
1254.2492,-0.005567
1256.1129,-0.005387
1257.9765,-0.005298
1259.8402,-0.004950
1261.7039,-0.004908
1263.5675,-0.005068
1265.4312,-0.004779
1267.2949,-0.004335
1269.1585,-0.003938
1271.0222,-0.003567
1272.8859,-0.003947
1274.7495,-0.004715
1276.6132,-0.004945
1278.4769,-0.004745
1280.3405,-0.004637
1282.2042,-0.004608
1284.0679,-0.004617
1285.9316,-0.004137
1287.7952,-0.003547
1289.6589,-0.003492
1291.5226,-0.004227
1293.3862,-0.004432
1295.2499,-0.004330
1297.1136,-0.004001
1298.9772,-0.004313
1300.8409,-0.004432
1302.7046,-0.004434
1304.5682,-0.004254
1306.4319,-0.004043
1308.2956,-0.003734
1310.1592,-0.003710
1312.0229,-0.002429
1313.8866,-0.001218
1315.7503,-0.001597
1317.6139,-0.000973
1319.4776,-0.000062
1321.3413,-0.001656
1323.2049,-0.003345
1325.0686,-0.003683
1326.9323,-0.003796
1328.7959,-0.003760
1330.6596,-0.003818
1332.5233,-0.004039
1334.3869,-0.003651
1336.2506,-0.000607
1338.1143,0.005284
1339.9780,0.008824
1341.8416,0.003466
1343.7053,-0.003095
1345.5690,-0.003661
1347.4326,-0.003598
1349.2963,-0.002904
1351.1600,-0.003045
1353.0236,-0.003025
1354.8873,-0.002191
1356.7510,-0.002228
1358.6146,-0.002578
1360.4783,0.002838
1362.3420,0.012041
1364.2056,0.010111
1366.0693,-0.000571
1367.9330,-0.000993
1369.7967,0.000304
1371.6603,-0.000671
1373.5240,0.005331
1375.3877,0.009002
1377.2513,0.002222
1379.1150,0.000205
1380.9787,-0.001795
1382.8423,-0.002962
1384.7060,-0.002241
1386.5697,0.006520
1388.4333,0.012011
1390.2970,0.001494
1392.1607,-0.001669
1394.0244,0.008460
1395.8880,0.016540
1397.7517,0.012352
1399.6154,0.012736
1401.4790,0.004025
1403.3427,0.000459
1405.2064,0.007545
1407.0700,0.003744
1408.9337,-0.001336
1410.7974,-0.000411
1412.6610,-0.000830
1414.5247,-0.000969
1416.3884,0.004322
1418.2520,0.017910
1420.1157,0.026943
1421.9794,0.010220
1423.8431,0.006403
1425.7067,0.005089
1427.5704,-0.000708
1429.4341,0.005967
1431.2977,0.007997
1433.1614,0.002420
1435.0251,0.005623
1436.8887,0.027335
1438.7524,0.017746
1440.6161,-0.000916
1442.4797,-0.001788
1444.3434,-0.002198
1446.2071,0.001535
1448.0707,0.008206
1449.9344,0.006105
1451.7981,0.000864
1453.6618,0.003043
1455.5254,0.014948
1457.3891,0.055477
1459.2528,0.038976
1461.1164,0.008649
1462.9801,-0.000990
1464.8438,0.012059
1466.7074,0.010265
1468.5711,-0.000197
1470.4348,0.003398
1472.2984,0.029708
1474.1621,0.035093
1476.0258,0.022127
1477.8895,0.011902
1479.7531,0.001843
1481.6168,0.002982
1483.4805,0.000685
1485.3441,0.000869
1487.2078,0.013553
1489.0715,0.026442
1490.9351,0.029188
1492.7988,0.010088
1494.6625,0.002832
1496.5261,0.022212
1498.3898,0.026514
1500.2535,0.015970
1502.1171,0.004198
1503.9808,0.000351
1505.8445,0.041342
1507.7082,0.081138
1509.5718,0.047040
1511.4355,0.022639
1513.2992,0.015943
1515.1628,0.017459
1517.0265,0.031892
1518.8902,0.027459
1520.7538,0.039084
1522.6175,0.052466
1524.4812,0.031775
1526.3448,0.029023
1528.2085,0.022442
1530.0722,0.011216
1531.9359,0.009944
1533.7995,0.027713
1535.6632,0.017552
1537.5269,0.007179
1539.3905,0.045450
1541.2542,0.069461
1543.1179,0.052858
1544.9815,0.036272
1546.8452,0.016727
1548.7089,0.009711
1550.5725,0.016661
1552.4362,0.009845
1554.2999,0.018761
1556.1635,0.020906
1558.0272,0.049945
1559.8909,0.087945
1561.7546,0.038444
1563.6182,0.009343
1565.4819,0.007757
1567.3456,0.004516
1569.2092,0.017292
1571.0729,0.021349
1572.9366,0.002353
1574.8002,0.005818
1576.6639,0.029699
1578.5276,0.017475
1580.3912,0.001841
1582.2549,0.000528
1584.1186,-0.000411
1585.9822,0.000043
1587.8459,-0.000575
1589.7096,0.000809
1591.5733,0.000559
1593.4369,0.001759
1595.3006,0.002110
1597.1643,0.001505
1599.0279,-0.000592
1600.8916,0.000636
1602.7553,0.001106
1604.6189,0.001264
1606.4826,0.000816
1608.3463,0.003601
1610.2099,0.002481
1612.0736,0.000584
1613.9373,-0.003541
1615.8010,0.011166
1617.6646,0.026917
1619.5283,0.010293
1621.3920,0.003472
1623.2556,0.016839
1625.1193,0.015585
1626.9830,0.009935
1628.8466,0.011445
1630.7103,0.004576
1632.5740,-0.000454
1634.4376,0.017823
1636.3013,0.046844
1638.1650,0.028980
1640.0286,0.010253
1641.8923,0.003721
1643.7560,0.002268
1645.6197,0.019978
1647.4833,0.041980
1649.3470,0.022188
1651.2107,0.010851
1653.0743,0.067261
1654.9380,0.063988
1656.8017,0.019487
1658.6653,0.004188
1660.5290,0.003190
1662.3927,0.014845
1664.2563,0.014728
1666.1200,0.003634
1667.9837,0.011216
1669.8474,0.032370
1671.7110,0.025083
1673.5747,0.014448
1675.4384,0.026560
1677.3020,0.019640
1679.1657,0.009080
1681.0294,0.010439
1682.8930,0.023377
1684.7567,0.058159
1686.6204,0.036129
1688.4840,0.016859
1690.3477,0.011805
1692.2114,0.003884
1694.0750,0.003807
1695.9387,0.032424
1697.8024,0.030407
1699.6661,0.044953
1701.5297,0.053959
1703.3934,0.025180
1705.2571,0.023542
1707.1207,0.021190
1708.9844,0.010314
1710.8481,0.004650
1712.7117,0.005635
1714.5754,0.016223
1716.4391,0.034522
1718.3027,0.048685
1720.1664,0.026878
1722.0301,0.007411
1723.8937,0.005192
1725.7574,0.002266
1727.6211,0.001673
1729.4848,0.007402
1731.3484,0.009799
1733.2121,0.027196
1735.0758,0.044744
1736.9394,0.018494
1738.8031,0.012767
1740.6668,0.017956
1742.5304,0.016085
1744.3941,0.014279
1746.2578,0.013907
1748.1214,0.019372
1749.9851,0.026528
1751.8488,0.027163
1753.7125,0.012574
1755.5761,0.007620
1757.4398,0.013047
1759.3035,0.008164
1761.1671,0.013226
1763.0308,0.016318
1764.8945,0.005781
1766.7581,0.006038
1768.6218,0.013973
1770.4855,0.015779
1772.3491,0.030077
1774.2128,0.026502
1776.0765,0.012303
1777.9401,0.005331
1779.8038,0.007842
1781.6675,0.009690
1783.5312,0.008183
1785.3948,0.010084
1787.2585,0.005501
1789.1222,0.002851
1790.9858,0.014140
1792.8495,0.025524
1794.7132,0.017261
1796.5768,0.008379
1798.4405,0.007408
1800.3042,0.013709
1802.1678,0.015401
1804.0315,0.008500
1805.8952,0.003304
1807.7589,0.003574
1809.6225,0.006993
1811.4862,0.009598
1813.3499,0.005323
1815.2135,0.001432
1817.0772,0.002608
1818.9409,0.003400
1820.8045,0.002393
1822.6682,0.003353
1824.5319,0.010266
1826.3955,0.012256
1828.2592,0.010766
1830.1229,0.017991
1831.9865,0.013605
1833.8502,0.005095
1835.7139,0.003286
1837.5776,0.004215
1839.4412,0.002915
1841.3049,0.002182
1843.1686,0.011879
1845.0322,0.022398
1846.8959,0.015216
1848.7596,0.008073
1850.6232,0.003948
1852.4869,0.002638
1854.3506,0.002168
1856.2142,0.002428
1858.0779,0.002975
1859.9416,0.003470
1861.8052,0.003027
1863.6689,0.002716
1865.5326,0.003995
1867.3963,0.011096
1869.2599,0.019315
1871.1236,0.014541
1872.9873,0.005475
1874.8509,0.002785
1876.7146,0.002526
1878.5783,0.003080
1880.4419,0.003263
1882.3056,0.002897
1884.1693,0.002884
1886.0329,0.002842
1887.8966,0.004675
1889.7603,0.009447
1891.6240,0.007829
1893.4876,0.004936
1895.3513,0.005516
1897.2150,0.004848
1899.0786,0.003399
1900.9423,0.003014
1902.8060,0.003047
1904.6696,0.003323
1906.5333,0.003562
1908.3970,0.005495
1910.2606,0.006693
1912.1243,0.005152
1913.9880,0.002839
1915.8516,0.003125
1917.7153,0.009144
1919.5790,0.010621
1921.4427,0.007392
1923.3063,0.007858
1925.1700,0.005341
1927.0337,0.002772
1928.8973,0.002381
1930.7610,0.002852
1932.6247,0.002521
1934.4883,0.002972
1936.3520,0.002876
1938.2157,0.002012
1940.0793,0.002420
1941.9430,0.007292
1943.8067,0.008771
1945.6704,0.005639
1947.5340,0.003533
1949.3977,0.002744
1951.2614,0.002426
1953.1250,0.003102
1954.9887,0.002770
1956.8524,0.001460
1958.7160,0.001387
1960.5797,0.002242
1962.4434,0.002623
1964.3070,0.003334
1966.1707,0.004997
1968.0344,0.006565
1969.8980,0.005151
1971.7617,0.003621
1973.6254,0.002932
1975.4891,0.003524
1977.3527,0.006117
1979.2164,0.009663
1981.0801,0.008885
1982.9437,0.007474
1984.8074,0.006812
1986.6711,0.006722
1988.5347,0.007353
1990.3984,0.008660
1992.2621,0.010417
1994.1257,0.009090
1995.9894,0.006193
1997.8531,0.005287
1999.7167,0.004247
2001.5804,0.003598
2003.4441,0.003376
2005.3078,0.003333
2007.1714,0.004052
2009.0351,0.006473
2010.8988,0.006821
2012.7624,0.005380
2014.6261,0.005329
2016.4898,0.007223
2018.3534,0.008072
2020.2171,0.007224
2022.0808,0.006470
2023.9444,0.006863
2025.8081,0.006630
2027.6718,0.006986
2029.5355,0.007240
2031.3991,0.008092
2033.2628,0.008655
2035.1265,0.009872
2036.9901,0.010247
2038.8538,0.010182
2040.7175,0.009898
2042.5811,0.010169
2044.4448,0.010007
2046.3085,0.010481
2048.1721,0.011356
2050.0358,0.011965
2051.8995,0.011272
2053.7631,0.010076
2055.6268,0.009282
2057.4905,0.009439
2059.3542,0.009102
2061.2178,0.008706
2063.0815,0.008672
2064.9452,0.009638
2066.8088,0.009709
2068.6725,0.008938
2070.5362,0.008300
2072.3998,0.009000
2074.2635,0.009112
2076.1272,0.009034
2077.9908,0.009246
2079.8545,0.009534
2081.7182,0.009191
2083.5819,0.008902
2085.4455,0.008464
2087.3092,0.008483
2089.1729,0.008315
2091.0365,0.007385
2092.9002,0.006535
2094.7639,0.006843
2096.6275,0.007560
2098.4912,0.008410
2100.3549,0.008807
2102.2185,0.009241
2104.0822,0.009390
2105.9459,0.009520
2107.8095,0.008756
2109.6732,0.008120
2111.5369,0.007905
2113.4006,0.008214
2115.2642,0.007891
2117.1279,0.007557
2118.9916,0.007548
2120.8552,0.007538
2122.7189,0.006766
2124.5826,0.006000
2126.4462,0.005340
2128.3099,0.005075
2130.1736,0.004380
2132.0372,0.004210
2133.9009,0.004875
2135.7646,0.006165
2137.6282,0.006550
2139.4919,0.006338
2141.3556,0.005925
2143.2193,0.005860
2145.0829,0.005584
2146.9466,0.005689
2148.8103,0.005859
2150.6739,0.006339
2152.5376,0.006338
2154.4013,0.005505
2156.2649,0.004434
2158.1286,0.007946
2159.9923,0.013135
2161.8559,0.014870
2163.7196,0.013791
2165.5833,0.013096
2167.4470,0.012096
2169.3106,0.011028
2171.1743,0.009863
2173.0380,0.008828
2174.9016,0.008345
2176.7653,0.009316
2178.6290,0.009922
2180.4926,0.010574
2182.3563,0.010163
2184.2200,0.009870
2186.0836,0.009920
2187.9473,0.009587
2189.8110,0.009072
2191.6746,0.009236
2193.5383,0.008724
2195.4020,0.009013
2197.2657,0.009151
2199.1293,0.009277
2200.9930,0.008567
2202.8567,0.008638
2204.7203,0.008882
2206.5840,0.008748
2208.4477,0.008349
2210.3113,0.008395
2212.1750,0.008233
2214.0387,0.008728
2215.9023,0.008563
2217.7660,0.008184
2219.6297,0.008033
2221.4934,0.008305
2223.3570,0.007775
2225.2207,0.007457
2227.0844,0.007396
2228.9480,0.008126
2230.8117,0.008006
2232.6754,0.007755
2234.5390,0.007877
2236.4027,0.008586
2238.2664,0.007939
2240.1300,0.007993
2241.9937,0.008033
2243.8574,0.007891
2245.7210,0.007260
2247.5847,0.007249
2249.4484,0.006862
2251.3121,0.006443
2253.1757,0.006821
2255.0394,0.007857
2256.9031,0.008383
2258.7667,0.008492
2260.6304,0.007933
2262.4941,0.007548
2264.3577,0.007070
2266.2214,0.007422
2268.0851,0.008099
2269.9487,0.008257
2271.8124,0.008051
2273.6761,0.008772
2275.5397,0.008818
2277.4034,0.009030
2279.2671,0.009143
2281.1308,0.009267
2282.9944,0.008957
2284.8581,0.009295
2286.7218,0.009324
2288.5854,0.009129
2290.4491,0.008926
2292.3128,0.008863
2294.1764,0.008426
2296.0401,0.008376
2297.9038,0.008883
2299.7674,0.009536
2301.6311,0.009541
2303.4948,0.009550
2305.3585,0.009703
2307.2221,0.010031
2309.0858,0.010284
2310.9495,0.010685
2312.8131,0.011082
2314.6768,0.011352
2316.5405,0.011258
2318.4041,0.011575
2320.2678,0.012102
2322.1315,0.013028
2323.9951,0.013250
2325.8588,0.011519
2327.7225,0.009018
2329.5861,0.008271
2331.4498,0.008441
2333.3135,0.008498
2335.1772,0.007977
2337.0408,0.007951
2338.9045,0.008483
2340.7682,0.009618
2342.6318,0.011288
2344.4955,0.014649
2346.3592,0.015756
2348.2228,0.011813
2350.0865,0.004473
2351.9502,0.000116
2353.8138,0.002093
2355.6775,0.005585
2357.5412,0.006781
2359.4049,0.007514
2361.2685,0.008798
2363.1322,0.010262
2364.9959,0.012021
2366.8595,0.013942
2368.7232,0.015601
2370.5869,0.016872
2372.4505,0.017365
2374.3142,0.016970
2376.1779,0.015561
2378.0415,0.013833
2379.9052,0.011955
2381.7689,0.010143
2383.6325,0.008391
2385.4962,0.007077
2387.3599,0.006136
2389.2236,0.005984
2391.0872,0.005982
2392.9509,0.006154
2394.8146,0.006097
2396.6782,0.005913
2398.5419,0.005939
2400.4056,0.006404
2402.2692,0.006317
2404.1329,0.006003
2405.9966,0.006263
2407.8602,0.006667
2409.7239,0.006708
2411.5876,0.006814
2413.4512,0.006603
2415.3149,0.006365
2417.1786,0.006307
2419.0423,0.006514
2420.9059,0.006633
2422.7696,0.006573
2424.6333,0.006353
2426.4969,0.006533
2428.3606,0.006700
2430.2243,0.006644
2432.0879,0.006563
2433.9516,0.006795
2435.8153,0.006815
2437.6789,0.007041
2439.5426,0.007001
2441.4063,0.006652
2443.2700,0.006514
2445.1336,0.007034
2446.9973,0.007465
2448.8610,0.007621
2450.7246,0.007304
2452.5883,0.007377
2454.4520,0.007549
2456.3156,0.007413
2458.1793,0.006882
2460.0430,0.006917
2461.9066,0.006911
2463.7703,0.006613
2465.6340,0.006782
2467.4976,0.007408
2469.3613,0.007385
2471.2250,0.007344
2473.0887,0.007026
2474.9523,0.006486
2476.8160,0.006348
2478.6797,0.006907
2480.5433,0.007146
2482.4070,0.007090
2484.2707,0.006730
2486.1343,0.006519
2487.9980,0.006525
2489.8617,0.006807
2491.7253,0.006615
2493.5890,0.006804
2495.4527,0.007150
2497.3164,0.007255
2499.1800,0.007055
2501.0437,0.006913
2502.9074,0.006570
2504.7710,0.006157
2506.6347,0.006243
2508.4984,0.006895
2510.3620,0.006878
2512.2257,0.006826
2514.0894,0.007094
2515.9530,0.007299
2517.8167,0.006873
2519.6804,0.006629
2521.5440,0.006799
2523.4077,0.006939
2525.2714,0.006611
2527.1351,0.006614
2528.9987,0.006720
2530.8624,0.006617
2532.7261,0.006474
2534.5897,0.006734
2536.4534,0.006836
2538.3171,0.006484
2540.1807,0.006286
2542.0444,0.006822
2543.9081,0.007491
2545.7717,0.007600
2547.6354,0.006814
2549.4991,0.006476
2551.3627,0.006903
2553.2264,0.007189
2555.0901,0.006792
2556.9538,0.006780
2558.8174,0.007060
2560.6811,0.007165
2562.5448,0.007107
2564.4084,0.007133
2566.2721,0.007410
2568.1358,0.008110
2569.9994,0.007792
2571.8631,0.007082
2573.7268,0.007037
2575.5904,0.007336
2577.4541,0.007186
2579.3178,0.007016
2581.1815,0.007340
2583.0451,0.007632
2584.9088,0.007444
2586.7725,0.007817
2588.6361,0.007880
2590.4998,0.007098
2592.3635,0.006610
2594.2271,0.006863
