Wavenumber,Intensity
650.4205,0.044975
652.2841,0.044480
654.1478,0.044535
656.0115,0.043091
657.8751,0.042034
659.7388,0.042561
661.6025,0.042565
663.4661,0.042429
665.3298,0.042324
667.1935,0.041906
669.0571,0.041234
670.9208,0.040607
672.7845,0.039805
674.6481,0.039308
676.5118,0.039796
678.3755,0.039905
680.2392,0.039273
682.1028,0.038354
683.9665,0.038279
685.8302,0.038582
687.6938,0.038062
689.5575,0.037849
691.4212,0.038206
693.2848,0.038486
695.1485,0.038081
697.0122,0.037094
698.8758,0.036556
700.7395,0.036752
702.6032,0.037233
704.4669,0.037409
706.3305,0.036302
708.1942,0.035644
710.0579,0.036183
711.9215,0.036036
713.7852,0.035874
715.6489,0.035596
717.5125,0.034761
719.3762,0.033812
721.2399,0.033236
723.1035,0.033563
724.9672,0.033571
726.8309,0.033200
728.6945,0.033117
730.5582,0.032830
732.4219,0.032429
734.2856,0.032591
736.1492,0.032414
738.0129,0.032032
739.8766,0.032319
741.7402,0.032177
743.6039,0.031697
745.4676,0.031437
747.3312,0.031221
749.1949,0.031097
751.0586,0.031054
752.9222,0.031250
754.7859,0.031240
756.6496,0.030467
758.5132,0.030058
760.3769,0.030084
762.2406,0.029890
764.1043,0.030219
765.9679,0.030626
767.8316,0.030259
769.6953,0.029964
771.5589,0.029974
773.4226,0.029602
775.2863,0.029209
777.1499,0.029473
779.0136,0.029604
780.8773,0.029151
782.7409,0.029028
784.6046,0.029177
786.4683,0.028799
788.3320,0.028482
790.1956,0.028561
792.0593,0.028484
793.9230,0.028192
795.7866,0.027870
797.6503,0.027643
799.5140,0.027690
801.3776,0.027643
803.2413,0.027347
805.1050,0.027313
806.9686,0.027538
808.8323,0.027419
810.6960,0.026992
812.5596,0.026930
814.4233,0.026882
816.2870,0.026664
818.1507,0.026550
820.0143,0.026598
821.8780,0.026607
823.7417,0.026557
825.6053,0.026369
827.4690,0.025919
829.3327,0.025771
831.1963,0.025888
833.0600,0.025857
834.9237,0.025739
836.7873,0.025744
838.6510,0.025803
840.5147,0.025731
842.3784,0.025868
844.2420,0.026082
846.1057,0.026037
847.9694,0.026075
849.8330,0.026406
851.6967,0.026482
853.5604,0.026398
855.4240,0.026664
857.2877,0.026928
859.1514,0.027094
861.0150,0.027395
862.8787,0.027882
864.7424,0.028360
866.6060,0.028606
868.4697,0.028873
870.3334,0.029360
872.1971,0.029888
874.0607,0.030103
875.9244,0.029928
877.7881,0.029593
879.6517,0.029357
881.5154,0.029271
883.3791,0.029155
885.2427,0.029150
887.1064,0.029230
888.9701,0.029278
890.8337,0.029353
892.6974,0.029506
894.5611,0.029657
896.4247,0.029846
898.2884,0.030025
900.1521,0.030098
902.0158,0.030247
903.8794,0.030389
905.7431,0.030526
907.6068,0.030699
909.4704,0.030875
911.3341,0.031120
913.1978,0.031363
915.0614,0.031533
916.9251,0.031595
918.7888,0.031629
920.6524,0.031832
922.5161,0.032117
924.3798,0.032288
926.2435,0.032395
928.1071,0.032625
929.9708,0.032969
931.8345,0.033273
933.6981,0.033620
935.5618,0.033989
937.4255,0.034302
939.2891,0.034719
941.1528,0.035138
943.0165,0.035515
944.8801,0.035946
946.7438,0.036367
948.6075,0.036768
950.4711,0.037157
952.3348,0.037563
954.1985,0.038041
956.0622,0.038591
957.9258,0.039105
959.7895,0.039594
961.6532,0.040060
963.5168,0.040489
965.3805,0.040887
967.2442,0.041191
969.1078,0.041540
970.9715,0.042002
972.8352,0.042451
974.6988,0.042876
976.5625,0.043412
978.4262,0.044053
980.2899,0.044562
982.1535,0.044998
984.0172,0.045476
985.8809,0.045845
987.7445,0.046197
989.6082,0.046682
991.4719,0.047181
993.3355,0.047542
995.1992,0.047741
997.0629,0.047942
998.9265,0.048217
1000.7902,0.048510
1002.6539,0.048855
1004.5175,0.049113
1006.3812,0.049271
1008.2449,0.049424
1010.1086,0.049482
1011.9722,0.049523
1013.8359,0.049624
1015.6996,0.049741
1017.5632,0.049729
1019.4269,0.049672
1021.2906,0.049578
1023.1542,0.049305
1025.0179,0.049097
1026.8816,0.048970
1028.7452,0.048732
1030.6089,0.048419
1032.4726,0.048000
1034.3362,0.047544
1036.1999,0.047095
1038.0636,0.046509
1039.9273,0.045860
1041.7909,0.045399
1043.6546,0.044971
1045.5183,0.044412
1047.3819,0.043986
1049.2456,0.043577
1051.1093,0.043114
1052.9729,0.042679
1054.8366,0.042161
1056.7003,0.041621
1058.5639,0.041094
1060.4276,0.040398
1062.2913,0.039697
1064.1550,0.039125
1066.0186,0.038505
1067.8823,0.037902
1069.7460,0.037383
1071.6096,0.036922
1073.4733,0.036478
1075.3370,0.035948
1077.2006,0.035409
1079.0643,0.034876
1080.9280,0.034278
1082.7916,0.033731
1084.6553,0.033308
1086.5190,0.032801
1088.3826,0.032304
1090.2463,0.032031
1092.1100,0.031764
1093.9737,0.031364
1095.8373,0.030873
1097.7010,0.030446
1099.5647,0.030029
1101.4283,0.029521
1103.2920,0.029112
1105.1557,0.028790
1107.0193,0.028464
1108.8830,0.028095
1110.7467,0.027601
1112.6103,0.027126
1114.4740,0.026734
1116.3377,0.026271
1118.2014,0.025852
1120.0650,0.025533
1121.9287,0.025104
1123.7924,0.024647
1125.6560,0.024241
1127.5197,0.023886
1129.3834,0.023575
1131.2470,0.023193
1133.1107,0.022837
1134.9744,0.022565
1136.8380,0.022229
1138.7017,0.022000
1140.5654,0.021870
1142.4290,0.021676
1144.2927,0.021556
1146.1564,0.021419
1148.0201,0.021237
1149.8837,0.021095
1151.7474,0.020911
1153.6111,0.020652
1155.4747,0.020351
1157.3384,0.019985
1159.2021,0.019668
1161.0657,0.019332
1162.9294,0.018876
1164.7931,0.018441
1166.6567,0.017993
1168.5204,0.017410
1170.3841,0.016855
1172.2477,0.016536
1174.1114,0.016218
1175.9751,0.015660
1177.8388,0.015119
1179.7024,0.014815
1181.5661,0.014531
1183.4298,0.014142
1185.2934,0.013872
1187.1571,0.013779
1189.0208,0.013715
1190.8844,0.013604
1192.7481,0.013486
1194.6118,0.013443
1196.4754,0.013467
1198.3391,0.013587
1200.2028,0.013663
1202.0665,0.013617
1203.9301,0.013593
1205.7938,0.013616
1207.6575,0.013592
1209.5211,0.013613
1211.3848,0.013682
1213.2485,0.013815
1215.1121,0.013950
1216.9758,0.014015
1218.8395,0.014132
1220.7031,0.014209
1222.5668,0.014263
1224.4305,0.014370
1226.2941,0.014490
1228.1578,0.014549
1230.0215,0.014603
1231.8852,0.014694
1233.7488,0.014727
1235.6125,0.014715
1237.4762,0.014781
1239.3398,0.014768
1241.2035,0.014756
1243.0672,0.014728
1244.9308,0.014617
1246.7945,0.014632
1248.6582,0.014686
1250.5218,0.014579
1252.3855,0.014497
1254.2492,0.014447
1256.1129,0.014345
1257.9765,0.014325
1259.8402,0.014305
1261.7039,0.014191
1263.5675,0.014118
1265.4312,0.014118
1267.2949,0.014062
1269.1585,0.014012
1271.0222,0.013992
1272.8859,0.013976
1274.7495,0.013959
1276.6132,0.013998
1278.4769,0.014033
1280.3405,0.014099
1282.2042,0.014215
1284.0679,0.014231
1285.9316,0.014180
1287.7952,0.014272
1289.6589,0.014322
1291.5226,0.014289
1293.3862,0.014394
1295.2499,0.014544
1297.1136,0.014596
1298.9772,0.014643
1300.8409,0.014686
1302.7046,0.014758
1304.5682,0.014872
1306.4319,0.014921
1308.2956,0.014952
1310.1592,0.015114
1312.0229,0.015329
1313.8866,0.015368
1315.7503,0.015356
1317.6139,0.015359
1319.4776,0.015265
1321.3413,0.015183
1323.2049,0.015228
1325.0686,0.015229
1326.9323,0.015174
1328.7959,0.015178
1330.6596,0.015228
1332.5233,0.015281
1334.3869,0.015355
1336.2506,0.015486
1338.1143,0.015644
1339.9780,0.015617
1341.8416,0.015598
1343.7053,0.015669
1345.5690,0.015766
1347.4326,0.015824
1349.2963,0.015887
1351.1600,0.015887
1353.0236,0.015940
1354.8873,0.016213
1356.7510,0.016422
1358.6146,0.016480
1360.4783,0.016740
1362.3420,0.017022
1364.2056,0.017070
1366.0693,0.017098
1367.9330,0.017323
1369.7967,0.017498
1371.6603,0.017678
1373.5240,0.017959
1375.3877,0.018054
1377.2513,0.017968
1379.1150,0.017934
1380.9787,0.018065
1382.8423,0.018154
1384.7060,0.018342
1386.5697,0.018626
1388.4333,0.018694
1390.2970,0.018485
1392.1607,0.018600
1394.0244,0.018927
1395.8880,0.019122
1397.7517,0.019291
1399.6154,0.019405
1401.4790,0.019484
1403.3427,0.019525
1405.2064,0.019655
1407.0700,0.019657
1408.9337,0.019664
1410.7974,0.019677
1412.6610,0.019672
1414.5247,0.019523
1416.3884,0.019644
1418.2520,0.020003
1420.1157,0.019903
1421.9794,0.019307
1423.8431,0.018928
1425.7067,0.018861
1427.5704,0.018752
1429.4341,0.018700
1431.2977,0.018475
1433.1614,0.018217
1435.0251,0.018403
1436.8887,0.018558
1438.7524,0.017978
1440.6161,0.017405
1442.4797,0.017280
1444.3434,0.017167
1446.2071,0.017176
1448.0707,0.017083
1449.9344,0.016764
1451.7981,0.016439
1453.6618,0.016519
1455.5254,0.016845
1457.3891,0.016969
1459.2528,0.016008
1461.1164,0.015147
1462.9801,0.014945
1464.8438,0.014963
1466.7074,0.014658
1468.5711,0.014098
1470.4348,0.013995
1472.2984,0.014112
1474.1621,0.013819
1476.0258,0.013171
1477.8895,0.012787
1479.7531,0.012553
1481.6168,0.012400
1483.4805,0.012384
1485.3441,0.012484
1487.2078,0.012855
1489.0715,0.013280
1490.9351,0.013178
1492.7988,0.012950
1494.6625,0.013156
1496.5261,0.013710
1498.3898,0.014037
1500.2535,0.014015
1502.1171,0.014076
1503.9808,0.014680
1505.8445,0.015623
1507.7082,0.015847
1509.5718,0.015393
1511.4355,0.015489
1513.2992,0.016015
1515.1628,0.016593
1517.0265,0.017039
1518.8902,0.017332
1520.7538,0.017366
1522.6175,0.017246
1524.4812,0.017163
1526.3448,0.017367
1528.2085,0.017343
1530.0722,0.017363
1531.9359,0.017800
1533.7995,0.018015
1535.6632,0.017872
1537.5269,0.018161
1539.3905,0.019424
1541.2542,0.019472
1543.1179,0.018485
1544.9815,0.017929
1546.8452,0.017742
1548.7089,0.017678
1550.5725,0.017783
1552.4362,0.017553
1554.2999,0.017253
1556.1635,0.017632
1558.0272,0.018536
1559.8909,0.018454
1561.7546,0.016879
1563.6182,0.016259
1565.4819,0.016314
1567.3456,0.016634
1569.2092,0.016877
1571.0729,0.016792
1572.9366,0.016762
1574.8002,0.017189
1576.6639,0.017604
1578.5276,0.017435
1580.3912,0.017329
1582.2549,0.017575
1584.1186,0.017805
1585.9822,0.018003
1587.8459,0.018232
1589.7096,0.018518
1591.5733,0.018680
1593.4369,0.018820
1595.3006,0.019207
1597.1643,0.019438
1599.0279,0.019550
1600.8916,0.019721
1602.7553,0.019749
1604.6189,0.019773
1606.4826,0.019995
1608.3463,0.020280
1610.2099,0.020201
1612.0736,0.019891
1613.9373,0.020199
1615.8010,0.020677
1617.6646,0.020801
1619.5283,0.020507
1621.3920,0.020527
1623.2556,0.020952
1625.1193,0.021272
1626.9830,0.021312
1628.8466,0.021218
1630.7103,0.020969
1632.5740,0.021177
1634.4376,0.021940
1636.3013,0.022288
1638.1650,0.021490
1640.0286,0.020744
1641.8923,0.020601
1643.7560,0.020827
1645.6197,0.021317
1647.4833,0.021204
1649.3470,0.020657
1651.2107,0.020691
1653.0743,0.021547
1654.9380,0.020635
1656.8017,0.019107
1658.6653,0.018567
1660.5290,0.018412
1662.3927,0.018107
1664.2563,0.017539
1666.1200,0.017045
1667.9837,0.016833
1669.8474,0.016408
1671.7110,0.015683
1673.5747,0.015031
1675.4384,0.014562
1677.3020,0.013959
1679.1657,0.013280
1681.0294,0.013211
1682.8930,0.013391
1684.7567,0.013375
1686.6204,0.011994
1688.4840,0.010869
1690.3477,0.010395
1692.2114,0.010082
1694.0750,0.009921
1695.9387,0.009793
1697.8024,0.009566
1699.6661,0.008860
1701.5297,0.008611
1703.3934,0.007895
1705.2571,0.007442
1707.1207,0.007173
1708.9844,0.006773
1710.8481,0.006561
1712.7117,0.006530
1714.5754,0.006750
1716.4391,0.006637
1718.3027,0.006406
1720.1664,0.006300
1722.0301,0.005814
1723.8937,0.005607
1725.7574,0.005520
1727.6211,0.005437
1729.4848,0.005425
1731.3484,0.005481
1733.2121,0.005363
1735.0758,0.005563
1736.9394,0.005153
1738.8031,0.004724
1740.6668,0.004795
1742.5304,0.004695
1744.3941,0.004654
1746.2578,0.004614
1748.1214,0.004674
1749.9851,0.004554
1751.8488,0.004360
1753.7125,0.004286
1755.5761,0.004000
1757.4398,0.004065
1759.3035,0.004127
1761.1671,0.004050
1763.0308,0.004111
1764.8945,0.004000
1766.7581,0.003836
1768.6218,0.003940
1770.4855,0.003896
1772.3491,0.003850
1774.2128,0.004032
1776.0765,0.003888
1777.9401,0.003963
1779.8038,0.003969
1781.6675,0.003831
1783.5312,0.003721
1785.3948,0.003819
1787.2585,0.003847
1789.1222,0.004055
1790.9858,0.004462
1792.8495,0.004674
1794.7132,0.004244
1796.5768,0.003746
1798.4405,0.003615
1800.3042,0.003592
1802.1678,0.003722
1804.0315,0.003680
1805.8952,0.003583
1807.7589,0.003606
1809.6225,0.003894
1811.4862,0.004016
1813.3499,0.003727
1815.2135,0.003503
1817.0772,0.003529
1818.9409,0.003844
1820.8045,0.004082
1822.6682,0.004011
1824.5319,0.003909
1826.3955,0.003874
1828.2592,0.003706
1830.1229,0.003833
1831.9865,0.003979
1833.8502,0.003923
1835.7139,0.003901
1837.5776,0.004001
1839.4412,0.004050
1841.3049,0.003887
1843.1686,0.003874
1845.0322,0.004219
1846.8959,0.004207
1848.7596,0.003970
1850.6232,0.003861
1852.4869,0.003911
1854.3506,0.004340
1856.2142,0.004398
1858.0779,0.004096
1859.9416,0.003944
1861.8052,0.004037
1863.6689,0.003992
1865.5326,0.003853
1867.3963,0.003870
1869.2599,0.004156
1871.1236,0.004211
1872.9873,0.004130
1874.8509,0.004146
1876.7146,0.004274
1878.5783,0.004302
1880.4419,0.004292
1882.3056,0.004395
1884.1693,0.004358
1886.0329,0.004069
1887.8966,0.004263
1889.7603,0.004249
1891.6240,0.004243
1893.4876,0.004455
1895.3513,0.004517
1897.2150,0.004424
1899.0786,0.004527
1900.9423,0.004490
1902.8060,0.004239
1904.6696,0.004297
1906.5333,0.004722
1908.3970,0.004732
1910.2606,0.004198
1912.1243,0.004146
1913.9880,0.004343
1915.8516,0.004429
1917.7153,0.004517
1919.5790,0.004366
1921.4427,0.004040
1923.3063,0.004326
1925.1700,0.004848
1927.0337,0.004543
1928.8973,0.003899
1930.7610,0.004105
1932.6247,0.004655
1934.4883,0.005050
1936.3520,0.004903
1938.2157,0.004535
1940.0793,0.004281
1941.9430,0.003999
1943.8067,0.004425
1945.6704,0.005130
1947.5340,0.005244
1949.3977,0.004729
1951.2614,0.004147
1953.1250,0.004001
1954.9887,0.004147
1956.8524,0.004716
1958.7160,0.004815
1960.5797,0.004799
1962.4434,0.004790
1964.3070,0.004947
1966.1707,0.005146
1968.0344,0.004169
1969.8980,0.003852
1971.7617,0.004400
1973.6254,0.004702
1975.4891,0.004919
1977.3527,0.005658
1979.2164,0.006120
1981.0801,0.005779
1982.9437,0.005497
1984.8074,0.005372
1986.6711,0.005073
1988.5347,0.005108
1990.3984,0.005050
1992.2621,0.005482
1994.1257,0.005646
1995.9894,0.005547
1997.8531,0.005713
1999.7167,0.005168
2001.5804,0.004285
2003.4441,0.004369
2005.3078,0.004299
2007.1714,0.004067
2009.0351,0.004626
2010.8988,0.005036
2012.7624,0.004760
2014.6261,0.005165
2016.4898,0.005574
2018.3534,0.005548
2020.2171,0.006030
2022.0808,0.005718
2023.9444,0.005208
2025.8081,0.005143
2027.6718,0.005288
2029.5355,0.005548
2031.3991,0.004773
2033.2628,0.004508
2035.1265,0.005292
2036.9901,0.005555
2038.8538,0.005397
2040.7175,0.004917
2042.5811,0.005003
2044.4448,0.005187
2046.3085,0.005263
2048.1721,0.005547
2050.0358,0.006387
2051.8995,0.006111
2053.7631,0.005183
2055.6268,0.005394
2057.4905,0.005588
2059.3542,0.005466
2061.2178,0.005554
2063.0815,0.005606
2064.9452,0.005844
2066.8088,0.005438
2068.6725,0.004868
2070.5362,0.004896
2072.3998,0.005094
2074.2635,0.005264
2076.1272,0.005348
2077.9908,0.005416
2079.8545,0.005600
2081.7182,0.005193
2083.5819,0.005090
2085.4455,0.004968
2087.3092,0.005053
2089.1729,0.005478
2091.0365,0.005783
2092.9002,0.005823
2094.7639,0.005608
2096.6275,0.005476
2098.4912,0.005111
2100.3549,0.004917
2102.2185,0.005206
2104.0822,0.005538
2105.9459,0.005410
2107.8095,0.004902
2109.6732,0.004868
2111.5369,0.005230
2113.4006,0.005454
2115.2642,0.005672
2117.1279,0.005669
2118.9916,0.005273
2120.8552,0.004883
2122.7189,0.005207
2124.5826,0.005385
2126.4462,0.004734
2128.3099,0.004332
2130.1736,0.004258
2132.0372,0.004258
2133.9009,0.004644
2135.7646,0.004726
2137.6282,0.004909
2139.4919,0.005175
2141.3556,0.005511
2143.2193,0.005211
2145.0829,0.004583
2146.9466,0.004528
2148.8103,0.004828
2150.6739,0.005085
2152.5376,0.004970
2154.4013,0.004615
2156.2649,0.003694
2158.1286,0.003853
2159.9923,0.005327
2161.8559,0.005540
2163.7196,0.005808
2165.5833,0.006108
2167.4470,0.006127
2169.3106,0.005739
2171.1743,0.004992
2173.0380,0.005261
2174.9016,0.005690
2176.7653,0.005505
2178.6290,0.005086
2180.4926,0.005297
2182.3563,0.005778
2184.2200,0.006434
2186.0836,0.006294
2187.9473,0.005674
2189.8110,0.005638
2191.6746,0.005937
2193.5383,0.006276
2195.4020,0.006724
2197.2657,0.006045
2199.1293,0.005248
2200.9930,0.005433
2202.8567,0.005763
2204.7203,0.006002
2206.5840,0.005932
2208.4477,0.005898
2210.3113,0.006102
2212.1750,0.006001
2214.0387,0.005676
2215.9023,0.005256
2217.7660,0.005387
2219.6297,0.005770
2221.4934,0.005577
2223.3570,0.005472
2225.2207,0.006126
2227.0844,0.006148
2228.9480,0.005714
2230.8117,0.005822
2232.6754,0.005950
2234.5390,0.005882
2236.4027,0.005787
2238.2664,0.005952
2240.1300,0.005793
2241.9937,0.005640
2243.8574,0.005519
2245.7210,0.005310
2247.5847,0.005268
2249.4484,0.005222
2251.3121,0.005268
2253.1757,0.005919
2255.0394,0.006491
2256.9031,0.006402
2258.7667,0.006032
2260.6304,0.006031
2262.4941,0.005924
2264.3577,0.005944
2266.2214,0.005763
2268.0851,0.005539
2269.9487,0.005620
2271.8124,0.005446
2273.6761,0.005633
2275.5397,0.006311
2277.4034,0.006512
2279.2671,0.006397
2281.1308,0.006126
2282.9944,0.006182
2284.8581,0.006524
2286.7218,0.006427
2288.5854,0.006144
2290.4491,0.005890
2292.3128,0.005729
2294.1764,0.005835
2296.0401,0.005942
2297.9038,0.006142
2299.7674,0.006408
2301.6311,0.006368
2303.4948,0.006026
2305.3585,0.006063
2307.2221,0.006090
2309.0858,0.005705
2310.9495,0.005627
2312.8131,0.005762
2314.6768,0.005995
2316.5405,0.005828
2318.4041,0.005599
2320.2678,0.005856
2322.1315,0.006260
2323.9951,0.006493
2325.8588,0.006256
2327.7225,0.005853
2329.5861,0.005420
2331.4498,0.005423
2333.3135,0.005584
2335.1772,0.005403
2337.0408,0.005545
2338.9045,0.005783
2340.7682,0.005763
2342.6318,0.005789
2344.4955,0.005810
2346.3592,0.005486
2348.2228,0.004905
2350.0865,0.004506
2351.9502,0.004955
2353.8138,0.005806
2355.6775,0.006032
2357.5412,0.006014
2359.4049,0.006206
2361.2685,0.006020
2363.1322,0.005720
2364.9959,0.005855
2366.8595,0.005894
2368.7232,0.005413
2370.5869,0.005206
2372.4505,0.005229
2374.3142,0.005148
2376.1779,0.005147
2378.0415,0.005151
2379.9052,0.005132
2381.7689,0.005228
2383.6325,0.005418
2385.4962,0.005342
2387.3599,0.005073
2389.2236,0.005270
2391.0872,0.005418
2392.9509,0.005282
2394.8146,0.005099
2396.6782,0.004995
2398.5419,0.005369
2400.4056,0.005737
2402.2692,0.005620
2404.1329,0.005319
2405.9966,0.005308
2407.8602,0.005675
2409.7239,0.005884
2411.5876,0.005723
2413.4512,0.005358
2415.3149,0.005300
2417.1786,0.005590
2419.0423,0.005749
2420.9059,0.005615
2422.7696,0.005615
2424.6333,0.005840
2426.4969,0.005983
2428.3606,0.005706
2430.2243,0.005475
2432.0879,0.005554
2433.9516,0.005727
2435.8153,0.005883
2437.6789,0.006128
2439.5426,0.005844
2441.4063,0.005534
2443.2700,0.005978
2445.1336,0.005996
2446.9973,0.005978
2448.8610,0.006010
2450.7246,0.005544
2452.5883,0.005687
2454.4520,0.005815
2456.3156,0.005540
2458.1793,0.005865
2460.0430,0.006134
2461.9066,0.006078
2463.7703,0.005807
2465.6340,0.005699
2467.4976,0.005753
2469.3613,0.005625
2471.2250,0.005694
2473.0887,0.005879
2474.9523,0.005818
2476.8160,0.005772
2478.6797,0.006022
2480.5433,0.005964
2482.4070,0.005744
2484.2707,0.005655
2486.1343,0.005962
2487.9980,0.006164
2489.8617,0.005902
2491.7253,0.005647
2493.5890,0.005581
2495.4527,0.005890
2497.3164,0.006192
2499.1800,0.006186
2501.0437,0.005969
2502.9074,0.006057
2504.7710,0.006289
2506.6347,0.006092
2508.4984,0.006020
2510.3620,0.006282
2512.2257,0.006536
2514.0894,0.006334
2515.9530,0.006175
2517.8167,0.006297
2519.6804,0.006171
2521.5440,0.005729
2523.4077,0.005646
2525.2714,0.006043
2527.1351,0.005868
2528.9987,0.005628
2530.8624,0.006088
2532.7261,0.006436
2534.5897,0.006382
2536.4534,0.006337
2538.3171,0.006364
2540.1807,0.006117
2542.0444,0.005870
2543.9081,0.005981
2545.7717,0.006104
2547.6354,0.006098
2549.4991,0.006153
2551.3627,0.006142
2553.2264,0.006221
2555.0901,0.006443
2556.9538,0.006599
2558.8174,0.006381
2560.6811,0.006011
2562.5448,0.006035
2564.4084,0.006152
2566.2721,0.006135
2568.1358,0.006274
2569.9994,0.006425
2571.8631,0.006366
2573.7268,0.006388
2575.5904,0.006521
2577.4541,0.006574
2579.3178,0.006286
2581.1815,0.006119
2583.0451,0.006359
2584.9088,0.006561
2586.7725,0.006517
2588.6361,0.006609
2590.4998,0.006618
2592.3635,0.006305
2594.2271,0.006107
2596.0908,0.005978
2597.9545,0.005941
2599.8181,0.006520
2601.6818,0.006830
2603.5455,0.006381
2605.4091,0.006208
2607.2728,0.006175
2609.1365,0.006039
2611.0002,0.006293
2612.8638,0.006481
2614.7275,0.006366
2616.5912,0.006538
2618.4548,0.006837
2620.3185,0.006648
2622.1822,0.006611
2624.0458,0.006787
2625.9095,0.006756
