Wavenumber,Intensity
600.1014,0.059534
601.9651,0.064236
603.8287,0.069242
605.6924,0.063276
607.5561,0.055715
609.4197,0.058044
611.2834,0.059157
613.1471,0.058023
615.0107,0.061985
616.8744,0.054694
618.7381,0.055191
620.6017,0.057985
622.4654,0.054536
624.3291,0.052068
626.1928,0.053410
628.0564,0.057063
629.9201,0.059159
631.7838,0.058574
633.6474,0.055873
635.5111,0.054020
637.3748,0.053324
639.2384,0.053672
641.1021,0.055520
642.9658,0.055210
644.8294,0.053882
646.6931,0.052114
648.5568,0.051000
650.4205,0.050032
652.2841,0.051082
654.1478,0.051455
656.0115,0.050240
657.8751,0.050637
659.7388,0.051115
661.6025,0.051100
663.4661,0.050614
665.3298,0.051495
667.1935,0.053167
669.0571,0.051769
670.9208,0.050503
672.7845,0.049801
674.6481,0.049455
676.5118,0.048692
678.3755,0.047540
680.2392,0.047754
682.1028,0.047753
683.9665,0.047449
685.8302,0.046579
687.6938,0.046352
689.5575,0.046621
691.4212,0.047095
693.2848,0.047628
695.1485,0.047765
697.0122,0.046841
698.8758,0.045861
700.7395,0.045944
702.6032,0.046491
704.4669,0.046511
706.3305,0.046731
708.1942,0.047918
710.0579,0.049519
711.9215,0.050905
713.7852,0.050024
715.6489,0.047130
717.5125,0.044507
719.3762,0.042902
721.2399,0.042140
723.1035,0.041928
724.9672,0.041238
726.8309,0.040582
728.6945,0.040291
730.5582,0.040075
732.4219,0.039649
734.2856,0.039589
736.1492,0.039997
738.0129,0.040078
739.8766,0.040129
741.7402,0.039656
743.6039,0.039581
745.4676,0.039576
747.3312,0.039097
749.1949,0.039067
751.0586,0.039344
752.9222,0.039402
754.7859,0.039366
756.6496,0.039365
758.5132,0.039674
760.3769,0.039455
762.2406,0.038741
764.1043,0.038433
765.9679,0.038446
767.8316,0.038367
769.6953,0.038288
771.5589,0.037954
773.4226,0.037835
775.2863,0.037995
777.1499,0.037965
779.0136,0.037719
780.8773,0.037569
782.7409,0.037480
784.6046,0.037043
786.4683,0.036594
788.3320,0.036509
790.1956,0.036437
792.0593,0.036222
793.9230,0.035870
795.7866,0.035609
797.6503,0.035510
799.5140,0.035366
801.3776,0.034900
803.2413,0.034265
805.1050,0.033979
806.9686,0.034001
808.8323,0.033866
810.6960,0.033319
812.5596,0.032960
814.4233,0.033064
816.2870,0.033082
818.1507,0.033005
820.0143,0.033115
821.8780,0.033042
823.7417,0.032988
825.6053,0.033043
827.4690,0.033137
829.3327,0.033413
831.1963,0.033674
833.0600,0.034005
834.9237,0.034386
836.7873,0.034658
838.6510,0.034985
840.5147,0.035719
842.3784,0.036419
844.2420,0.037058
846.1057,0.037973
847.9694,0.038511
849.8330,0.038531
851.6967,0.038882
853.5604,0.039585
855.4240,0.040299
857.2877,0.041331
859.1514,0.042518
861.0150,0.043698
862.8787,0.045097
864.7424,0.046856
866.6060,0.048851
868.4697,0.051395
870.3334,0.054332
872.1971,0.056485
874.0607,0.056982
875.9244,0.055836
877.7881,0.053275
879.6517,0.049909
881.5154,0.046778
883.3791,0.044085
885.2427,0.041267
887.1064,0.038745
888.9701,0.037640
890.8337,0.037633
892.6974,0.037987
894.5611,0.038310
896.4247,0.038677
898.2884,0.039102
900.1521,0.039427
902.0158,0.039766
903.8794,0.040194
905.7431,0.040737
907.6068,0.041291
909.4704,0.041844
911.3341,0.042304
913.1978,0.042550
915.0614,0.042922
916.9251,0.043493
918.7888,0.043940
920.6524,0.044293
922.5161,0.044563
924.3798,0.044772
926.2435,0.045090
928.1071,0.045402
929.9708,0.045827
931.8345,0.046243
933.6981,0.046459
935.5618,0.046904
937.4255,0.047519
939.2891,0.048050
941.1528,0.048526
943.0165,0.049091
944.8801,0.049591
946.7438,0.050143
948.6075,0.050901
950.4711,0.051654
952.3348,0.052262
954.1985,0.052931
956.0622,0.053783
957.9258,0.054626
959.7895,0.055457
961.6532,0.056438
963.5168,0.057455
965.3805,0.058367
967.2442,0.059240
969.1078,0.060047
970.9715,0.060949
972.8352,0.061989
974.6988,0.062975
976.5625,0.063751
978.4262,0.064665
980.2899,0.065719
982.1535,0.066608
984.0172,0.067470
985.8809,0.068397
987.7445,0.069264
989.6082,0.070106
991.4719,0.070754
993.3355,0.071246
995.1992,0.071722
997.0629,0.072233
998.9265,0.072743
1000.7902,0.073122
1002.6539,0.073316
1004.5175,0.073519
1006.3812,0.073843
1008.2449,0.074100
1010.1086,0.074225
1011.9722,0.074315
1013.8359,0.074405
1015.6996,0.074485
1017.5632,0.074585
1019.4269,0.074571
1021.2906,0.074450
1023.1542,0.074215
1025.0179,0.073848
1026.8816,0.073400
1028.7452,0.072908
1030.6089,0.072456
1032.4726,0.071919
1034.3362,0.071174
1036.1999,0.070378
1038.0636,0.069660
1039.9273,0.068869
1041.7909,0.067933
1043.6546,0.066908
1045.5183,0.065908
1047.3819,0.064915
1049.2456,0.063867
1051.1093,0.062844
1052.9729,0.061859
1054.8366,0.060830
1056.7003,0.059910
1058.5639,0.059019
1060.4276,0.058123
1062.2913,0.057322
1064.1550,0.056695
1066.0186,0.056052
1067.8823,0.055417
1069.7460,0.055034
1071.6096,0.054751
1073.4733,0.054394
1075.3370,0.054124
1077.2006,0.053947
1079.0643,0.053605
1080.9280,0.053077
1082.7916,0.052469
1084.6553,0.051855
1086.5190,0.051287
1088.3826,0.050682
1090.2463,0.050091
1092.1100,0.049521
1093.9737,0.048945
1095.8373,0.048332
1097.7010,0.047819
1099.5647,0.047391
1101.4283,0.046805
1103.2920,0.046203
1105.1557,0.045727
1107.0193,0.045189
1108.8830,0.044634
1110.7467,0.044169
1112.6103,0.043795
1114.4740,0.043336
1116.3377,0.042836
1118.2014,0.042319
1120.0650,0.041772
1121.9287,0.041299
1123.7924,0.040893
1125.6560,0.040489
1127.5197,0.040041
1129.3834,0.039597
1131.2470,0.039181
1133.1107,0.038772
1134.9744,0.038431
1136.8380,0.038195
1138.7017,0.038050
1140.5654,0.037860
1142.4290,0.037628
1144.2927,0.037428
1146.1564,0.037217
1148.0201,0.036971
1149.8837,0.036608
1151.7474,0.036110
1153.6111,0.035621
1155.4747,0.035074
1157.3384,0.034416
1159.2021,0.033691
1161.0657,0.032957
1162.9294,0.032264
1164.7931,0.031557
1166.6567,0.030699
1168.5204,0.029740
1170.3841,0.028853
1172.2477,0.028048
1174.1114,0.027308
1175.9751,0.026598
1177.8388,0.025811
1179.7024,0.025064
1181.5661,0.024474
1183.4298,0.023978
1185.2934,0.023434
1187.1571,0.022924
1189.0208,0.022494
1190.8844,0.022157
1192.7481,0.021891
1194.6118,0.021635
1196.4754,0.021428
1198.3391,0.021217
1200.2028,0.020965
1202.0665,0.020694
1203.9301,0.020424
1205.7938,0.020237
1207.6575,0.020112
1209.5211,0.019851
1211.3848,0.019618
1213.2485,0.019543
1215.1121,0.019419
1216.9758,0.019298
1218.8395,0.019193
1220.7031,0.019048
1222.5668,0.018915
1224.4305,0.018954
1226.2941,0.018998
1228.1578,0.019003
1230.0215,0.018999
1231.8852,0.018938
1233.7488,0.018945
1235.6125,0.018935
1237.4762,0.018848
1239.3398,0.018766
1241.2035,0.018725
1243.0672,0.018683
1244.9308,0.018640
1246.7945,0.018627
1248.6582,0.018552
1250.5218,0.018416
1252.3855,0.018279
1254.2492,0.018236
1256.1129,0.018221
1257.9765,0.018124
1259.8402,0.018127
1261.7039,0.018148
1263.5675,0.018092
1265.4312,0.018063
1267.2949,0.018009
1269.1585,0.017957
1271.0222,0.017921
1272.8859,0.017887
1274.7495,0.017936
1276.6132,0.018032
1278.4769,0.018073
1280.3405,0.018104
1282.2042,0.018164
1284.0679,0.018255
1285.9316,0.018310
1287.7952,0.018345
1289.6589,0.018373
1291.5226,0.018489
1293.3862,0.018697
1295.2499,0.018847
1297.1136,0.018936
1298.9772,0.019095
1300.8409,0.019198
1302.7046,0.019275
1304.5682,0.019472
1306.4319,0.019672
1308.2956,0.019839
1310.1592,0.020022
1312.0229,0.020258
1313.8866,0.020496
1315.7503,0.020673
1317.6139,0.020780
1319.4776,0.020824
1321.3413,0.020884
1323.2049,0.021070
1325.0686,0.021298
1326.9323,0.021416
1328.7959,0.021460
1330.6596,0.021693
1332.5233,0.022021
1334.3869,0.022198
1336.2506,0.022393
1338.1143,0.022789
1339.9780,0.023186
1341.8416,0.023220
1343.7053,0.023331
1345.5690,0.023612
1347.4326,0.023848
1349.2963,0.024023
1351.1600,0.024377
1353.0236,0.024752
1354.8873,0.025022
1356.7510,0.025348
1358.6146,0.025731
1360.4783,0.026033
1362.3420,0.026638
1364.2056,0.027061
1366.0693,0.027308
1367.9330,0.027840
1369.7967,0.028305
1371.6603,0.028657
1373.5240,0.029050
1375.3877,0.029398
1377.2513,0.029855
1379.1150,0.030182
1380.9787,0.030337
1382.8423,0.030858
1384.7060,0.031387
1386.5697,0.031987
1388.4333,0.032239
1390.2970,0.032381
1392.1607,0.032830
1394.0244,0.033657
1395.8880,0.033933
1397.7517,0.033871
1399.6154,0.034128
1401.4790,0.034159
1403.3427,0.034549
1405.2064,0.034985
1407.0700,0.035177
1408.9337,0.035330
1410.7974,0.035691
1412.6610,0.035842
1414.5247,0.035915
1416.3884,0.035902
1418.2520,0.036047
1420.1157,0.035476
1421.9794,0.034767
1423.8431,0.034677
1425.7067,0.034273
1427.5704,0.034023
1429.4341,0.033928
1431.2977,0.033636
1433.1614,0.033167
1435.0251,0.033026
1436.8887,0.032905
1438.7524,0.031997
1440.6161,0.031927
1442.4797,0.031862
1444.3434,0.031607
1446.2071,0.031451
1448.0707,0.031211
1449.9344,0.030689
1451.7981,0.030603
1453.6618,0.030321
1455.5254,0.030353
1457.3891,0.029988
1459.2528,0.028660
1461.1164,0.027820
1462.9801,0.027452
1464.8438,0.027242
1466.7074,0.026595
1468.5711,0.026000
1470.4348,0.025603
1472.2984,0.025538
1474.1621,0.024507
1476.0258,0.023786
1477.8895,0.023075
1479.7531,0.022569
1481.6168,0.022295
1483.4805,0.021936
1485.3441,0.021824
1487.2078,0.021811
1489.0715,0.021677
1490.9351,0.021343
1492.7988,0.020844
1494.6625,0.020866
1496.5261,0.021018
1498.3898,0.020635
1500.2535,0.020393
1502.1171,0.020424
1503.9808,0.020553
1505.8445,0.021277
1507.7082,0.021436
1509.5718,0.020410
1511.4355,0.020118
1513.2992,0.020018
1515.1628,0.020196
1517.0265,0.020384
1518.8902,0.019973
1520.7538,0.020243
1522.6175,0.019895
1524.4812,0.019404
1526.3448,0.019059
1528.2085,0.018649
1530.0722,0.018360
1531.9359,0.018269
1533.7995,0.018499
1535.6632,0.018021
1537.5269,0.018128
1539.3905,0.018644
1541.2542,0.017872
1543.1179,0.016888
1544.9815,0.016144
1546.8452,0.015343
1548.7089,0.015414
1550.5725,0.015166
1552.4362,0.014734
1554.2999,0.014827
1556.1635,0.014454
1558.0272,0.015114
1559.8909,0.014559
1561.7546,0.012689
1563.6182,0.012394
1565.4819,0.012456
1567.3456,0.012370
1569.2092,0.012399
1571.0729,0.011975
1572.9366,0.011721
1574.8002,0.011973
1576.6639,0.011973
1578.5276,0.011417
1580.3912,0.011390
1582.2549,0.011339
1584.1186,0.011311
1585.9822,0.011344
1587.8459,0.011421
1589.7096,0.011542
1591.5733,0.011758
1593.4369,0.011879
1595.3006,0.011826
1597.1643,0.011853
1599.0279,0.012002
1600.8916,0.012250
1602.7553,0.012479
1604.6189,0.012574
1606.4826,0.012651
1608.3463,0.012846
1610.2099,0.013144
1612.0736,0.013541
1613.9373,0.013937
1615.8010,0.014771
1617.6646,0.015117
1619.5283,0.015181
1621.3920,0.015668
1623.2556,0.016180
1625.1193,0.016221
1626.9830,0.016434
1628.8466,0.016613
1630.7103,0.016813
1632.5740,0.017206
1634.4376,0.018075
1636.3013,0.018198
1638.1650,0.017568
1640.0286,0.017592
1641.8923,0.017661
1643.7560,0.017977
1645.6197,0.018427
1647.4833,0.018151
1649.3470,0.017540
1651.2107,0.018128
1653.0743,0.019008
1654.9380,0.016784
1656.8017,0.015998
1658.6653,0.015835
1660.5290,0.015582
1662.3927,0.015209
1664.2563,0.014458
1666.1200,0.014151
1667.9837,0.014266
1669.8474,0.014068
1671.7110,0.013000
1673.5747,0.012266
1675.4384,0.011917
1677.3020,0.010924
1679.1657,0.010405
1681.0294,0.009987
1682.8930,0.010136
1684.7567,0.009984
1686.6204,0.008461
1688.4840,0.007719
1690.3477,0.007030
1692.2114,0.006345
1694.0750,0.006182
1695.9387,0.006278
1697.8024,0.005299
1699.6661,0.005499
1701.5297,0.004496
1703.3934,0.003527
1705.2571,0.003309
1707.1207,0.002890
1708.9844,0.002377
1710.8481,0.001995
1712.7117,0.001868
1714.5754,0.002066
1716.4391,0.002392
1718.3027,0.002256
1720.1664,0.001293
1722.0301,0.000970
1723.8937,0.000833
1725.7574,0.000724
1727.6211,0.000688
1729.4848,0.000923
1731.3484,0.000841
1733.2121,0.001146
1735.0758,0.001108
1736.9394,0.000324
1738.8031,0.000159
1740.6668,-0.000026
1742.5304,-0.000066
1744.3941,-0.000136
1746.2578,-0.000132
1748.1214,-0.000187
1749.9851,-0.000350
1751.8488,-0.000200
1753.7125,-0.000464
1755.5761,-0.000647
1757.4398,-0.000715
1759.3035,-0.000836
1761.1671,-0.000677
1763.0308,-0.000672
1764.8945,-0.001007
1766.7581,-0.001003
1768.6218,-0.000935
1770.4855,-0.000811
1772.3491,-0.000284
1774.2128,-0.000680
1776.0765,-0.001161
1777.9401,-0.001354
1779.8038,-0.001013
1781.6675,-0.000916
1783.5312,-0.001121
1785.3948,-0.001200
1787.2585,-0.001115
1789.1222,-0.000959
1790.9858,-0.000514
1792.8495,-0.000183
1794.7132,-0.000495
1796.5768,-0.000659
1798.4405,-0.000369
1800.3042,-0.000078
1802.1678,-0.000321
1804.0315,-0.000797
1805.8952,-0.001100
1807.7589,-0.001115
1809.6225,-0.001121
1811.4862,-0.001157
1813.3499,-0.001218
1815.2135,-0.001468
1817.0772,-0.001631
1818.9409,-0.001408
1820.8045,-0.001313
1822.6682,-0.001443
1824.5319,-0.001364
1826.3955,-0.001330
1828.2592,-0.001261
1830.1229,-0.000954
1831.9865,-0.001097
1833.8502,-0.001264
1835.7139,-0.001238
1837.5776,-0.001245
1839.4412,-0.001425
1841.3049,-0.001467
1843.1686,-0.001203
1845.0322,-0.000979
1846.8959,-0.001156
1848.7596,-0.001296
1850.6232,-0.001378
1852.4869,-0.001521
1854.3506,-0.001560
1856.2142,-0.001234
1858.0779,-0.001175
1859.9416,-0.001133
1861.8052,-0.001239
1863.6689,-0.001503
1865.5326,-0.001536
1867.3963,-0.001135
1869.2599,-0.000859
1871.1236,-0.000957
1872.9873,-0.001312
1874.8509,-0.001600
1876.7146,-0.001421
1878.5783,-0.001132
1880.4419,-0.001334
1882.3056,-0.001440
1884.1693,-0.001348
1886.0329,-0.001393
1887.8966,-0.001285
1889.7603,-0.001031
1891.6240,-0.001309
1893.4876,-0.001477
1895.3513,-0.001239
1897.2150,-0.000923
1899.0786,-0.001001
1900.9423,-0.001305
1902.8060,-0.001209
1904.6696,-0.001105
1906.5333,-0.001592
1908.3970,-0.001758
1910.2606,-0.001435
1912.1243,-0.001496
1913.9880,-0.001556
1915.8516,-0.001381
1917.7153,-0.001247
1919.5790,-0.001184
1921.4427,-0.001349
1923.3063,-0.001371
1925.1700,-0.001428
1927.0337,-0.001319
1928.8973,-0.001186
1930.7610,-0.001365
1932.6247,-0.001302
1934.4883,-0.001243
1936.3520,-0.001339
1938.2157,-0.000967
1940.0793,-0.000904
1941.9430,-0.000786
1943.8067,-0.000896
1945.6704,-0.001471
1947.5340,-0.001721
1949.3977,-0.001352
1951.2614,-0.001197
1953.1250,-0.001253
1954.9887,-0.000845
1956.8524,-0.000658
1958.7160,-0.001237
1960.5797,-0.000931
1962.4434,-0.000549
1964.3070,-0.000929
1966.1707,-0.000805
1968.0344,-0.000351
1969.8980,-0.000851
1971.7617,-0.001812
1973.6254,-0.002075
1975.4891,-0.001361
1977.3527,-0.000582
1979.2164,-0.000281
1981.0801,-0.000479
1982.9437,-0.000552
1984.8074,-0.000603
1986.6711,-0.000625
1988.5347,-0.000773
1990.3984,-0.000944
1992.2621,-0.000764
1994.1257,-0.000770
1995.9894,-0.000943
1997.8531,-0.001097
1999.7167,-0.001174
2001.5804,-0.000895
2003.4441,-0.000954
2005.3078,-0.001020
2007.1714,-0.000681
2009.0351,-0.000533
2010.8988,-0.000988
2012.7624,-0.001239
2014.6261,-0.001290
2016.4898,-0.001253
2018.3534,-0.001174
2020.2171,-0.001628
2022.0808,-0.002022
2023.9444,-0.001259
2025.8081,-0.000346
2027.6718,-0.000032
2029.5355,-0.000504
2031.3991,-0.000676
2033.2628,-0.000532
2035.1265,-0.000936
2036.9901,-0.001445
2038.8538,-0.001293
2040.7175,-0.000757
2042.5811,-0.000639
2044.4448,-0.001303
2046.3085,-0.001439
2048.1721,-0.000538
2050.0358,-0.000018
2051.8995,-0.000506
2053.7631,-0.001052
2055.6268,-0.001076
2057.4905,-0.000684
2059.3542,-0.000546
2061.2178,-0.000757
2063.0815,-0.001297
2064.9452,-0.001682
2066.8088,-0.001276
2068.6725,-0.000773
2070.5362,-0.000928
2072.3998,-0.001175
2074.2635,-0.000943
2076.1272,-0.000374
2077.9908,-0.000270
2079.8545,-0.000492
2081.7182,-0.001039
2083.5819,-0.001562
2085.4455,-0.001483
2087.3092,-0.001431
2089.1729,-0.001464
2091.0365,-0.001120
2092.9002,-0.000948
2094.7639,-0.001297
2096.6275,-0.001416
2098.4912,-0.001028
2100.3549,-0.001021
2102.2185,-0.001332
2104.0822,-0.001574
2105.9459,-0.001358
2107.8095,-0.000900
2109.6732,-0.000884
2111.5369,-0.001290
2113.4006,-0.001639
2115.2642,-0.001521
2117.1279,-0.001268
2118.9916,-0.001446
2120.8552,-0.001289
2122.7189,-0.001112
2124.5826,-0.001218
2126.4462,-0.001198
2128.3099,-0.001298
2130.1736,-0.001276
2132.0372,-0.001186
2133.9009,-0.001304
2135.7646,-0.001413
2137.6282,-0.001840
2139.4919,-0.001962
2141.3556,-0.001550
2143.2193,-0.001019
2145.0829,-0.001255
2146.9466,-0.002222
2148.8103,-0.002285
2150.6739,-0.001864
2152.5376,-0.001654
2154.4013,-0.001363
2156.2649,-0.001345
2158.1286,-0.000863
2159.9923,-0.000275
2161.8559,-0.000483
2163.7196,-0.001590
2165.5833,-0.001996
2167.4470,-0.000658
2169.3106,-0.000043
2171.1743,-0.000825
2173.0380,-0.001647
2174.9016,-0.001921
2176.7653,-0.001844
2178.6290,-0.001541
2180.4926,-0.000769
2182.3563,-0.000298
2184.2200,-0.000055
2186.0836,-0.000186
2187.9473,-0.000841
2189.8110,-0.001513
2191.6746,-0.000958
2193.5383,-0.000305
2195.4020,-0.000933
2197.2657,-0.001622
2199.1293,-0.001399
2200.9930,-0.000811
2202.8567,-0.001267
2204.7203,-0.001546
2206.5840,-0.000636
2208.4477,-0.000620
2210.3113,-0.001074
2212.1750,-0.000603
2214.0387,-0.000573
2215.9023,-0.001087
2217.7660,-0.001318
2219.6297,-0.001452
2221.4934,-0.001085
2223.3570,-0.000799
2225.2207,-0.001312
2227.0844,-0.001541
2228.9480,-0.000782
2230.8117,-0.000718
2232.6754,-0.001153
2234.5390,-0.000991
2236.4027,-0.001124
2238.2664,-0.001753
2240.1300,-0.001933
2241.9937,-0.001475
2243.8574,-0.001140
2245.7210,-0.001537
2247.5847,-0.001843
2249.4484,-0.001366
2251.3121,-0.000865
2253.1757,-0.000926
2255.0394,-0.001225
2256.9031,-0.001585
2258.7667,-0.001827
2260.6304,-0.001830
2262.4941,-0.001657
2264.3577,-0.001696
2266.2214,-0.001506
2268.0851,-0.001246
2269.9487,-0.001188
2271.8124,-0.000984
2273.6761,-0.000902
2275.5397,-0.001161
2277.4034,-0.001344
2279.2671,-0.001178
2281.1308,-0.001289
2282.9944,-0.001598
2284.8581,-0.001330
2286.7218,-0.000925
2288.5854,-0.001130
2290.4491,-0.001580
2292.3128,-0.001593
2294.1764,-0.001740
2296.0401,-0.001897
2297.9038,-0.001463
2299.7674,-0.001185
2301.6311,-0.001283
2303.4948,-0.001184
2305.3585,-0.000967
2307.2221,-0.000728
2309.0858,-0.000528
2310.9495,-0.000543
2312.8131,-0.000731
2314.6768,-0.000819
2316.5405,-0.000533
2318.4041,-0.000105
2320.2678,0.000405
2322.1315,0.000766
2323.9951,0.000767
2325.8588,0.000453
2327.7225,0.000416
2329.5861,0.000698
2331.4498,0.000784
2333.3135,0.000684
2335.1772,0.000304
2337.0408,0.000220
2338.9045,0.000614
2340.7682,0.000703
2342.6318,0.000378
2344.4955,-0.000086
2346.3592,-0.000287
2348.2228,-0.000618
2350.0865,-0.000780
2351.9502,-0.000130
2353.8138,0.000483
2355.6775,0.000698
2357.5412,0.001237
2359.4049,0.001875
2361.2685,0.002297
2363.1322,0.002364
2364.9959,0.001861
2366.8595,0.001209
2368.7232,0.000893
2370.5869,0.000639
2372.4505,0.000435
2374.3142,0.000053
2376.1779,-0.000810
2378.0415,-0.001576
2379.9052,-0.002007
2381.7689,-0.002094
2383.6325,-0.002148
2385.4962,-0.002571
2387.3599,-0.002651
2389.2236,-0.002356
2391.0872,-0.002584
2392.9509,-0.002886
2394.8146,-0.002862
2396.6782,-0.002948
2398.5419,-0.002880
2400.4056,-0.002674
2402.2692,-0.002700
2404.1329,-0.002601
2405.9966,-0.002637
2407.8602,-0.002660
2409.7239,-0.002578
2411.5876,-0.002766
2413.4512,-0.002979
2415.3149,-0.002773
2417.1786,-0.002446
2419.0423,-0.002511
2420.9059,-0.002680
2422.7696,-0.002856
2424.6333,-0.003000
2426.4969,-0.002617
2428.3606,-0.002271
2430.2243,-0.002299
2432.0879,-0.002471
2433.9516,-0.002395
2435.8153,-0.002401
2437.6789,-0.002760
2439.5426,-0.002891
2441.4063,-0.002543
2443.2700,-0.002524
2445.1336,-0.002815
2446.9973,-0.002910
2448.8610,-0.002592
2450.7246,-0.002413
2452.5883,-0.002685
2454.4520,-0.002702
2456.3156,-0.002374
2458.1793,-0.002230
2460.0430,-0.002503
2461.9066,-0.002810
2463.7703,-0.002670
2465.6340,-0.002505
2467.4976,-0.002694
2469.3613,-0.002876
2471.2250,-0.002750
2473.0887,-0.002773
2474.9523,-0.002719
2476.8160,-0.002209
2478.6797,-0.002146
2480.5433,-0.002498
2482.4070,-0.002325
2484.2707,-0.002161
2486.1343,-0.002376
2487.9980,-0.002641
2489.8617,-0.002593
2491.7253,-0.002407
2493.5890,-0.002299
2495.4527,-0.002582
2497.3164,-0.003028
2499.1800,-0.003004
2501.0437,-0.002676
2502.9074,-0.002270
2504.7710,-0.002258
2506.6347,-0.002354
2508.4984,-0.002246
2510.3620,-0.002246
2512.2257,-0.002221
2514.0894,-0.002375
2515.9530,-0.002369
2517.8167,-0.002296
2519.6804,-0.002490
2521.5440,-0.002460
2523.4077,-0.002314
2525.2714,-0.002493
2527.1351,-0.002593
2528.9987,-0.002470
2530.8624,-0.002375
2532.7261,-0.002158
2534.5897,-0.001875
2536.4534,-0.002012
2538.3171,-0.002528
