Wavenumber,Intensity
600.1014,0.005829
601.9651,0.005004
603.8287,0.002092
605.6924,-0.001836
607.5561,-0.004061
609.4197,-0.002749
611.2834,0.002905
613.1471,0.002930
615.0107,0.005445
616.8744,0.003644
618.7381,0.000338
620.6017,0.001868
622.4654,0.002300
624.3291,0.001716
626.1928,0.001118
628.0564,0.001403
629.9201,0.002852
631.7838,0.002577
633.6474,0.001553
635.5111,0.004628
637.3748,0.007102
639.2384,0.004371
641.1021,0.003065
642.9658,0.002476
644.8294,0.001883
646.6931,0.003945
648.5568,0.004507
650.4205,0.003059
652.2841,0.001972
654.1478,0.001549
656.0115,0.003173
657.8751,0.003945
659.7388,0.003554
661.6025,0.002450
663.4661,0.002290
665.3298,0.002931
667.1935,0.008684
669.0571,0.009031
670.9208,0.003847
672.7845,0.003588
674.6481,0.004275
676.5118,0.003944
678.3755,0.003746
680.2392,0.004455
682.1028,0.004883
683.9665,0.005386
685.8302,0.006010
687.6938,0.005484
689.5575,0.004952
691.4212,0.006895
693.2848,0.008406
695.1485,0.008612
697.0122,0.008263
698.8758,0.007053
700.7395,0.005292
702.6032,0.004199
704.4669,0.003593
706.3305,0.003305
708.1942,0.003384
710.0579,0.003729
711.9215,0.003535
713.7852,0.002913
715.6489,0.002870
717.5125,0.003021
719.3762,0.003448
721.2399,0.003723
723.1035,0.003440
724.9672,0.003066
726.8309,0.002892
728.6945,0.003128
730.5582,0.003164
732.4219,0.003592
734.2856,0.003764
736.1492,0.003859
738.0129,0.003784
739.8766,0.003755
741.7402,0.003654
743.6039,0.003744
745.4676,0.004156
747.3312,0.004511
749.1949,0.004403
751.0586,0.004607
752.9222,0.004590
754.7859,0.004604
756.6496,0.005048
758.5132,0.005503
760.3769,0.006010
762.2406,0.006104
764.1043,0.005999
765.9679,0.006723
767.8316,0.007842
769.6953,0.009199
771.5589,0.010893
773.4226,0.013375
775.2863,0.016435
777.1499,0.019151
779.0136,0.020541
780.8773,0.020184
782.7409,0.018440
784.6046,0.016277
786.4683,0.014440
788.3320,0.013596
790.1956,0.014505
792.0593,0.016283
793.9230,0.018309
795.7866,0.020813
797.6503,0.022531
799.5140,0.022436
801.3776,0.020791
803.2413,0.018148
805.1050,0.014666
806.9686,0.011128
808.8323,0.008163
810.6960,0.006120
812.5596,0.004822
814.4233,0.004053
816.2870,0.003306
818.1507,0.002625
820.0143,0.002525
821.8780,0.002623
823.7417,0.002441
825.6053,0.002321
827.4690,0.002389
829.3327,0.002406
831.1963,0.002404
833.0600,0.002471
834.9237,0.002317
836.7873,0.002194
838.6510,0.002309
840.5147,0.002318
842.3784,0.002007
844.2420,0.001898
846.1057,0.001993
847.9694,0.002164
849.8330,0.002294
851.6967,0.002278
853.5604,0.002304
855.4240,0.002445
857.2877,0.002501
859.1514,0.002537
861.0150,0.002457
862.8787,0.002406
864.7424,0.002476
866.6060,0.002467
868.4697,0.002323
870.3334,0.002315
872.1971,0.002491
874.0607,0.002695
875.9244,0.002699
877.7881,0.002619
879.6517,0.002643
881.5154,0.002943
883.3791,0.003119
885.2427,0.003027
887.1064,0.002924
888.9701,0.002824
890.8337,0.002948
892.6974,0.003235
894.5611,0.003330
896.4247,0.003359
898.2884,0.003345
900.1521,0.003378
902.0158,0.003309
903.8794,0.003303
905.7431,0.003443
907.6068,0.003561
909.4704,0.003692
911.3341,0.003940
913.1978,0.004068
915.0614,0.004055
916.9251,0.004056
918.7888,0.004065
920.6524,0.004038
922.5161,0.004214
924.3798,0.004416
926.2435,0.004473
928.1071,0.004501
929.9708,0.004750
931.8345,0.004902
933.6981,0.004919
935.5618,0.005048
937.4255,0.005164
939.2891,0.005154
941.1528,0.005343
943.0165,0.005574
944.8801,0.005807
946.7438,0.005987
948.6075,0.006083
950.4711,0.006108
952.3348,0.006144
954.1985,0.006318
956.0622,0.006460
957.9258,0.006455
959.7895,0.006491
961.6532,0.006581
963.5168,0.006713
965.3805,0.006789
967.2442,0.006929
969.1078,0.007183
970.9715,0.007382
972.8352,0.007509
974.6988,0.007685
976.5625,0.007861
978.4262,0.008071
980.2899,0.008361
982.1535,0.008606
984.0172,0.008808
985.8809,0.009016
987.7445,0.009277
989.6082,0.009639
991.4719,0.009956
993.3355,0.010242
995.1992,0.010585
997.0629,0.010887
998.9265,0.011073
1000.7902,0.011397
1002.6539,0.011856
1004.5175,0.012162
1006.3812,0.012426
1008.2449,0.012746
1010.1086,0.013078
1011.9722,0.013515
1013.8359,0.014006
1015.6996,0.014490
1017.5632,0.014965
1019.4269,0.015484
1021.2906,0.016061
1023.1542,0.016677
1025.0179,0.017362
1026.8816,0.018164
1028.7452,0.018886
1030.6089,0.019662
1032.4726,0.020586
1034.3362,0.021575
1036.1999,0.022633
1038.0636,0.023690
1039.9273,0.024744
1041.7909,0.025927
1043.6546,0.027103
1045.5183,0.028372
1047.3819,0.029766
1049.2456,0.031281
1051.1093,0.032872
1052.9729,0.034509
1054.8366,0.036201
1056.7003,0.038073
1058.5639,0.040007
1060.4276,0.041973
1062.2913,0.043934
1064.1550,0.045760
1066.0186,0.047354
1067.8823,0.048853
1069.7460,0.050370
1071.6096,0.051987
1073.4733,0.053689
1075.3370,0.055261
1077.2006,0.056411
1079.0643,0.057217
1080.9280,0.057606
1082.7916,0.057500
1084.6553,0.057181
1086.5190,0.056748
1088.3826,0.055969
1090.2463,0.055044
1092.1100,0.053885
1093.9737,0.052569
1095.8373,0.051278
1097.7010,0.050006
1099.5647,0.048619
1101.4283,0.047163
1103.2920,0.045669
1105.1557,0.044265
1107.0193,0.042979
1108.8830,0.041734
1110.7467,0.040369
1112.6103,0.039064
1114.4740,0.037929
1116.3377,0.036866
1118.2014,0.035830
1120.0650,0.034745
1121.9287,0.033523
1123.7924,0.032367
1125.6560,0.031298
1127.5197,0.030226
1129.3834,0.029115
1131.2470,0.028093
1133.1107,0.027167
1134.9744,0.026375
1136.8380,0.025521
1138.7017,0.024592
1140.5654,0.023836
1142.4290,0.023222
1144.2927,0.022540
1146.1564,0.021826
1148.0201,0.021120
1149.8837,0.020521
1151.7474,0.019990
1153.6111,0.019562
1155.4747,0.019296
1157.3384,0.019316
1159.2021,0.019795
1161.0657,0.020623
1162.9294,0.021073
1164.7931,0.020733
1166.6567,0.019951
1168.5204,0.019146
1170.3841,0.018431
1172.2477,0.017853
1174.1114,0.017295
1175.9751,0.016827
1177.8388,0.016523
1179.7024,0.016315
1181.5661,0.016171
1183.4298,0.016113
1185.2934,0.016064
1187.1571,0.016053
1189.0208,0.016017
1190.8844,0.015856
1192.7481,0.015578
1194.6118,0.015404
1196.4754,0.015168
1198.3391,0.014817
1200.2028,0.014438
1202.0665,0.014050
1203.9301,0.013547
1205.7938,0.012946
1207.6575,0.012291
1209.5211,0.011612
1211.3848,0.010868
1213.2485,0.010093
1215.1121,0.009262
1216.9758,0.008415
1218.8395,0.007586
1220.7031,0.006932
1222.5668,0.006255
1224.4305,0.005592
1226.2941,0.005021
1228.1578,0.004527
1230.0215,0.004101
1231.8852,0.003836
1233.7488,0.003652
1235.6125,0.003470
1237.4762,0.003282
1239.3398,0.003130
1241.2035,0.002950
1243.0672,0.002810
1244.9308,0.002595
1246.7945,0.002345
1248.6582,0.002180
1250.5218,0.002106
1252.3855,0.002010
1254.2492,0.002011
1256.1129,0.001982
1257.9765,0.001905
1259.8402,0.001852
1261.7039,0.001711
1263.5675,0.001657
1265.4312,0.001733
1267.2949,0.001765
1269.1585,0.001721
1271.0222,0.001719
1272.8859,0.001648
1274.7495,0.001508
1276.6132,0.001440
1278.4769,0.001339
1280.3405,0.001232
1282.2042,0.001184
1284.0679,0.001164
1285.9316,0.001148
1287.7952,0.001260
1289.6589,0.001245
1291.5226,0.001133
1293.3862,0.001003
1295.2499,0.000964
1297.1136,0.000905
1298.9772,0.000832
1300.8409,0.000735
1302.7046,0.000740
1304.5682,0.000754
1306.4319,0.000837
1308.2956,0.000858
1310.1592,0.000726
1312.0229,0.000885
1313.8866,0.001190
1315.7503,0.001275
1317.6139,0.001426
1319.4776,0.001462
1321.3413,0.001059
1323.2049,0.000658
1325.0686,0.000541
1326.9323,0.000472
1328.7959,0.000457
1330.6596,0.000507
1332.5233,0.000541
1334.3869,0.000629
1336.2506,0.000951
1338.1143,0.001991
1339.9780,0.002837
1341.8416,0.001800
1343.7053,0.000741
1345.5690,0.000338
1347.4326,0.000471
1349.2963,0.000602
1351.1600,0.000600
1353.0236,0.000570
1354.8873,0.000701
1356.7510,0.000762
1358.6146,0.000698
1360.4783,0.000967
1362.3420,0.002408
1364.2056,0.002305
1366.0693,0.001049
1367.9330,0.000795
1369.7967,0.000879
1371.6603,0.000948
1373.5240,0.001833
1375.3877,0.001793
1377.2513,0.001319
1379.1150,0.001055
1380.9787,0.000867
1382.8423,0.000634
1384.7060,0.000463
1386.5697,0.001668
1388.4333,0.002107
1390.2970,0.001256
1392.1607,0.000715
1394.0244,0.002544
1395.8880,0.003527
1397.7517,0.003736
1399.6154,0.003330
1401.4790,0.001482
1403.3427,0.001106
1405.2064,0.001362
1407.0700,0.001148
1408.9337,0.000702
1410.7974,0.000846
1412.6610,0.000697
1414.5247,0.000781
1416.3884,0.001623
1418.2520,0.004261
1420.1157,0.004029
1421.9794,0.002315
1423.8431,0.002033
1425.7067,0.001236
1427.5704,0.000885
1429.4341,0.001146
1431.2977,0.001624
1433.1614,0.001015
1435.0251,0.001760
1436.8887,0.003722
1438.7524,0.002517
1440.6161,0.001221
1442.4797,0.000336
1444.3434,0.000392
1446.2071,0.001049
1448.0707,0.002053
1449.9344,0.001352
1451.7981,0.001205
1453.6618,0.000899
1455.5254,0.003631
1457.3891,0.006727
1459.2528,0.005746
1461.1164,0.002296
1462.9801,0.001030
1464.8438,0.001761
1466.7074,0.001719
1468.5711,0.000776
1470.4348,0.001358
1472.2984,0.005089
1474.1621,0.005855
1476.0258,0.004403
1477.8895,0.002133
1479.7531,0.001295
1481.6168,0.001001
1483.4805,0.000838
1485.3441,0.001200
1487.2078,0.002235
1489.0715,0.004517
1490.9351,0.004451
1492.7988,0.001967
1494.6625,0.001359
1496.5261,0.002745
1498.3898,0.003566
1500.2535,0.002806
1502.1171,0.001613
1503.9808,0.001061
1505.8445,0.005042
1507.7082,0.011139
1509.5718,0.008630
1511.4355,0.004660
1513.2992,0.002200
1515.1628,0.003258
1517.0265,0.005136
1518.8902,0.004890
1520.7538,0.006372
1522.6175,0.006702
1524.4812,0.006373
1526.3448,0.005047
1528.2085,0.003802
1530.0722,0.002506
1531.9359,0.002753
1533.7995,0.003487
1535.6632,0.002381
1537.5269,0.002735
1539.3905,0.005807
1541.2542,0.008703
1543.1179,0.007564
1544.9815,0.006192
1546.8452,0.002904
1548.7089,0.002248
1550.5725,0.002110
1552.4362,0.002275
1554.2999,0.002572
1556.1635,0.002811
1558.0272,0.006430
1559.8909,0.009086
1561.7546,0.005176
1563.6182,0.002625
1565.4819,0.001274
1567.3456,0.001305
1569.2092,0.002327
1571.0729,0.002256
1572.9366,0.001351
1574.8002,0.001600
1576.6639,0.003644
1578.5276,0.002852
1580.3912,0.001355
1582.2549,0.000438
1584.1186,0.000707
1585.9822,0.000638
1587.8459,0.000911
1589.7096,0.000963
1591.5733,0.001079
1593.4369,0.001136
1595.3006,0.001264
1597.1643,0.001018
1599.0279,0.000998
1600.8916,0.000973
1602.7553,0.001118
1604.6189,0.001025
1606.4826,0.001254
1608.3463,0.001541
1610.2099,0.001476
1612.0736,0.000909
1613.9373,0.000549
1615.8010,0.002184
1617.6646,0.003436
1619.5283,0.002402
1621.3920,0.001638
1623.2556,0.002584
1625.1193,0.002509
1626.9830,0.002001
1628.8466,0.001396
1630.7103,0.001138
1632.5740,0.000618
1634.4376,0.002992
1636.3013,0.005914
1638.1650,0.004895
1640.0286,0.002600
1641.8923,0.001055
1643.7560,0.000969
1645.6197,0.002718
1647.4833,0.004806
1649.3470,0.003281
1651.2107,0.002197
1653.0743,0.006200
1654.9380,0.007516
1656.8017,0.003895
1658.6653,0.000985
1660.5290,0.001030
1662.3927,0.002234
1664.2563,0.002171
1666.1200,0.001438
1667.9837,0.001990
1669.8474,0.004199
1671.7110,0.004180
1673.5747,0.002981
1675.4384,0.003086
1677.3020,0.002913
1679.1657,0.002663
1681.0294,0.001625
1682.8930,0.003703
1684.7567,0.005403
1686.6204,0.005200
1688.4840,0.003523
1690.3477,0.002237
1692.2114,0.001274
1694.0750,0.001566
1695.9387,0.003023
1697.8024,0.004045
1699.6661,0.006489
1701.5297,0.005440
1703.3934,0.004703
1705.2571,0.003409
1707.1207,0.003084
1708.9844,0.002253
1710.8481,0.001178
1712.7117,0.001360
1714.5754,0.002461
1716.4391,0.004903
1718.3027,0.006561
1720.1664,0.003921
1722.0301,0.002073
1723.8937,0.001141
1725.7574,0.000946
1727.6211,0.000531
1729.4848,0.001180
1731.3484,0.001703
1733.2121,0.004329
1735.0758,0.004743
1736.9394,0.003436
1738.8031,0.002346
1740.6668,0.002438
1742.5304,0.003051
1744.3941,0.002791
1746.2578,0.002978
1748.1214,0.003775
1749.9851,0.004243
1751.8488,0.003532
1753.7125,0.002019
1755.5761,0.001903
1757.4398,0.001759
1759.3035,0.001920
1761.1671,0.002087
1763.0308,0.002298
1764.8945,0.001494
1766.7581,0.001465
1768.6218,0.002087
1770.4855,0.002914
1772.3491,0.003854
1774.2128,0.004205
1776.0765,0.002931
1777.9401,0.001467
1779.8038,0.001712
1781.6675,0.001531
1783.5312,0.001787
1785.3948,0.001849
1787.2585,0.001562
1789.1222,0.001081
1790.9858,0.002523
1792.8495,0.003564
1794.7132,0.002941
1796.5768,0.001856
1798.4405,0.001391
1800.3042,0.002119
1802.1678,0.002644
1804.0315,0.002037
1805.8952,0.001119
1807.7589,0.000923
1809.6225,0.001489
1811.4862,0.001792
1813.3499,0.001273
1815.2135,0.000803
1817.0772,0.000921
1818.9409,0.001036
1820.8045,0.000863
1822.6682,0.001117
1824.5319,0.001698
1826.3955,0.001645
1828.2592,0.002122
1830.1229,0.002378
1831.9865,0.002323
1833.8502,0.001376
1835.7139,0.000852
1837.5776,0.001272
1839.4412,0.001234
1841.3049,0.000896
1843.1686,0.001332
1845.0322,0.002445
1846.8959,0.002852
1848.7596,0.001978
1850.6232,0.001064
1852.4869,0.000768
1854.3506,0.000830
1856.2142,0.000929
1858.0779,0.000643
1859.9416,0.001101
1861.8052,0.001191
1863.6689,0.001191
1865.5326,0.000971
1867.3963,0.001687
1869.2599,0.002898
1871.1236,0.002819
1872.9873,0.001395
1874.8509,0.000982
1876.7146,0.001228
1878.5783,0.001173
1880.4419,0.001078
1882.3056,0.000960
1884.1693,0.000765
1886.0329,0.000943
1887.8966,0.001137
1889.7603,0.001586
1891.6240,0.001780
1893.4876,0.001472
1895.3513,0.001273
1897.2150,0.001471
1899.0786,0.000849
1900.9423,0.000605
1902.8060,0.000747
1904.6696,0.000984
1906.5333,0.000941
1908.3970,0.001161
1910.2606,0.001272
1912.1243,0.001376
1913.9880,0.000916
1915.8516,0.000717
1917.7153,0.000935
1919.5790,0.001555
1921.4427,0.001649
1923.3063,0.001305
1925.1700,0.001092
1927.0337,0.000865
1928.8973,0.000873
1930.7610,0.001038
1932.6247,0.000932
1934.4883,0.001161
1936.3520,0.001072
1938.2157,0.000901
1940.0793,0.000694
1941.9430,0.001368
1943.8067,0.001982
1945.6704,0.002209
1947.5340,0.001624
1949.3977,0.001440
1951.2614,0.000744
1953.1250,0.000723
1954.9887,0.001061
1956.8524,0.001511
1958.7160,0.001476
1960.5797,0.000938
1962.4434,0.000327
1964.3070,0.000499
1966.1707,0.000994
1968.0344,0.000763
1969.8980,0.000114
1971.7617,0.001047
1973.6254,0.001570
1975.4891,0.001079
1977.3527,0.000933
1979.2164,0.001304
1981.0801,0.000722
1982.9437,0.000658
1984.8074,0.001492
1986.6711,0.001922
1988.5347,0.001351
1990.3984,0.002169
1992.2621,0.002636
1994.1257,0.001986
1995.9894,0.001175
1997.8531,0.001218
1999.7167,0.000677
2001.5804,0.000535
2003.4441,0.000682
2005.3078,0.000682
2007.1714,0.000506
2009.0351,0.000678
2010.8988,0.000676
2012.7624,0.001013
2014.6261,0.001347
2016.4898,0.001804
2018.3534,0.001360
2020.2171,0.000992
2022.0808,0.000992
2023.9444,0.000830
2025.8081,0.000650
2027.6718,0.001176
2029.5355,0.001213
2031.3991,0.001181
2033.2628,0.000448
2035.1265,0.000204
2036.9901,0.000939
2038.8538,0.001572
2040.7175,0.001184
2042.5811,0.001007
2044.4448,0.001041
2046.3085,0.001116
2048.1721,0.000849
2050.0358,0.000159
2051.8995,-0.000365
2053.7631,0.000439
2055.6268,0.001182
2057.4905,0.001317
2059.3542,0.000587
2061.2178,0.000001
2063.0815,0.000146
2064.9452,0.000821
2066.8088,0.000742
2068.6725,0.000128
2070.5362,-0.000207
2072.3998,0.000338
2074.2635,0.000286
2076.1272,0.000453
2077.9908,0.000676
2079.8545,0.000457
2081.7182,0.000558
2083.5819,0.000812
2085.4455,0.000350
2087.3092,0.000260
2089.1729,0.000318
2091.0365,0.000637
2092.9002,0.000529
2094.7639,0.000439
2096.6275,0.000196
2098.4912,0.000126
2100.3549,-0.000032
2102.2185,0.000045
2104.0822,0.000118
2105.9459,-0.000023
2107.8095,0.000053
2109.6732,0.000589
2111.5369,0.000639
2113.4006,0.000288
2115.2642,-0.000063
2117.1279,0.000020
2118.9916,0.000161
2120.8552,0.000237
2122.7189,0.000277
2124.5826,0.000207
2126.4462,0.000115
2128.3099,0.000378
2130.1736,0.000226
2132.0372,0.000204
2133.9009,0.000306
2135.7646,0.000495
2137.6282,0.000138
2139.4919,0.000251
2141.3556,0.000248
2143.2193,-0.000004
2145.0829,-0.000162
2146.9466,-0.000069
2148.8103,0.000069
2150.6739,0.000253
2152.5376,0.000144
2154.4013,0.000615
2156.2649,0.000423
2158.1286,0.000140
2159.9923,-0.000282
2161.8559,-0.000380
2163.7196,-0.000368
2165.5833,0.000109
2167.4470,0.000460
2169.3106,-0.000289
2171.1743,-0.000973
2173.0380,0.000189
2174.9016,0.000714
2176.7653,0.000422
2178.6290,0.000593
2180.4926,0.000791
2182.3563,0.000475
2184.2200,0.000423
2186.0836,-0.000382
2187.9473,-0.000745
2189.8110,-0.000573
2191.6746,-0.000059
2193.5383,0.000375
2195.4020,0.000707
2197.2657,0.000627
2199.1293,0.000237
2200.9930,0.000067
2202.8567,0.000672
2204.7203,0.000670
2206.5840,0.000514
2208.4477,0.000424
2210.3113,0.000741
2212.1750,0.000385
2214.0387,0.000042
2215.9023,0.000169
2217.7660,0.000465
2219.6297,0.000484
2221.4934,0.000975
2223.3570,0.000519
2225.2207,0.000184
2227.0844,0.000125
2228.9480,0.000459
2230.8117,0.000317
2232.6754,0.000227
2234.5390,0.000273
2236.4027,0.000385
2238.2664,0.000174
2240.1300,0.000385
2241.9937,0.000289
2243.8574,0.000389
2245.7210,0.000721
2247.5847,0.000887
2249.4484,0.000383
2251.3121,0.000265
2253.1757,0.000379
2255.0394,0.000422
2256.9031,0.000217
2258.7667,0.000243
2260.6304,0.000131
2262.4941,0.000391
2264.3577,0.000843
2266.2214,0.000772
2268.0851,0.000268
2269.9487,0.000243
2271.8124,0.000266
2273.6761,0.000258
2275.5397,0.000242
2277.4034,0.000421
2279.2671,0.000585
2281.1308,0.000770
2282.9944,0.000270
2284.8581,0.000185
2286.7218,0.000575
2288.5854,0.000977
2290.4491,0.000928
2292.3128,0.000737
2294.1764,0.000960
2296.0401,0.001533
2297.9038,0.001673
2299.7674,0.001619
2301.6311,0.001734
2303.4948,0.002272
2305.3585,0.002797
2307.2221,0.003341
2309.0858,0.003949
2310.9495,0.004333
2312.8131,0.004387
2314.6768,0.004626
2316.5405,0.004838
2318.4041,0.005455
2320.2678,0.006545
2322.1315,0.007709
2323.9951,0.008106
2325.8588,0.007960
2327.7225,0.007420
2329.5861,0.007789
2331.4498,0.008412
2333.3135,0.008387
2335.1772,0.008278
2337.0408,0.008549
2338.9045,0.008765
2340.7682,0.008851
2342.6318,0.009277
2344.4955,0.009916
2346.3592,0.008791
2348.2228,0.007420
2350.0865,0.006130
2351.9502,0.007283
2353.8138,0.010541
2355.6775,0.011332
2357.5412,0.009999
2359.4049,0.009856
2361.2685,0.010688
2363.1322,0.011029
2364.9959,0.010892
2366.8595,0.010492
2368.7232,0.010433
2370.5869,0.009918
2372.4505,0.008407
2374.3142,0.007348
2376.1779,0.006184
2378.0415,0.004844
2379.9052,0.003394
2381.7689,0.001951
2383.6325,0.001062
2385.4962,0.000853
2387.3599,0.000454
2389.2236,0.000123
2391.0872,-0.000111
2392.9509,-0.000382
2394.8146,-0.000435
2396.6782,-0.000211
2398.5419,-0.000213
2400.4056,-0.000077
2402.2692,-0.000195
2404.1329,-0.000198
2405.9966,-0.000014
2407.8602,0.000155
2409.7239,-0.000196
2411.5876,-0.000403
2413.4512,-0.000384
2415.3149,-0.000269
2417.1786,-0.000348
2419.0423,-0.000425
2420.9059,-0.000175
2422.7696,0.000007
2424.6333,-0.000683
2426.4969,-0.000820
2428.3606,-0.000621
2430.2243,-0.000655
2432.0879,-0.000485
2433.9516,-0.000310
2435.8153,-0.000131
2437.6789,-0.000077
2439.5426,-0.000458
2441.4063,-0.000579
2443.2700,-0.000495
2445.1336,-0.000641
2446.9973,-0.000695
2448.8610,-0.000365
2450.7246,0.000027
2452.5883,0.000090
2454.4520,-0.000368
2456.3156,-0.000269
2458.1793,-0.000225
2460.0430,-0.000402
2461.9066,-0.000421
2463.7703,-0.000583
2465.6340,-0.000884
2467.4976,-0.000895
2469.3613,-0.000441
2471.2250,-0.000038
2473.0887,-0.000092
2474.9523,-0.000478
2476.8160,-0.000538
2478.6797,-0.000233
2480.5433,-0.000165
2482.4070,-0.000187
2484.2707,-0.000422
2486.1343,-0.000258
2487.9980,-0.000199
2489.8617,-0.000541
2491.7253,-0.000546
2493.5890,-0.000531
2495.4527,-0.000566
2497.3164,-0.000125
2499.1800,-0.000028
2501.0437,-0.000240
2502.9074,-0.000311
2504.7710,-0.000233
2506.6347,-0.000361
2508.4984,-0.000234
2510.3620,-0.000286
2512.2257,-0.000264
2514.0894,-0.000003
2515.9530,0.000007
2517.8167,-0.000570
2519.6804,-0.000580
2521.5440,-0.000347
2523.4077,-0.000143
2525.2714,-0.000209
2527.1351,-0.000407
2528.9987,-0.000177
2530.8624,-0.000030
2532.7261,-0.000131
2534.5897,-0.000136
2536.4534,-0.000524
2538.3171,-0.000459
2540.1807,-0.000469
2542.0444,-0.000595
2543.9081,-0.000381
2545.7717,0.000101
2547.6354,0.000128
2549.4991,-0.000256
2551.3627,-0.000212
2553.2264,-0.000194
2555.0901,-0.000424
2556.9538,-0.000545
2558.8174,-0.000296
2560.6811,-0.000020
2562.5448,-0.000483
2564.4084,-0.000565
2566.2721,-0.000286
2568.1358,-0.000241
